F3,Fz,F4,Fc5,Fc1,Fc2,Fc6,T3,C3,C1,Cz,C2,C4,T4,Cp5,Cp1,Cp2,Cp6,P3,Pz,P4
-2.0483801,-1.6669937,-1.5140810,-2.3126578,-1.4205675,-1.3086803,-1.0772800,-0.3763183,-1.1676214,-1.0348668,-0.5106607,-0.0112414,-0.1775665,-0.8555584,-1.5416090,-1.6103172,-0.8778750,-2.0800867,-0.6242772,-0.5547334,-2.1721861
-2.3909404,-2.0529692,-1.6631503,-2.4249027,-1.4686089,-1.5964755,-1.2251729,-0.6434010,-2.2408476,-1.0992835,-0.5131430,-0.3662212,-0.7974294,-1.9436709,-1.8075800,-1.6472188,-1.0778170,-2.7868993,-1.1665609,-1.1462567,-2.6357222
-2.2176752,-1.5074511,-2.1031399,-2.2575326,-1.6397204,-1.6916484,-1.0402139,-0.5959297,-2.4619253,-1.0322063,-0.0879935,-1.0103775,-1.0896550,-2.4973910,-1.8019145,-1.4042510,-0.9411232,-2.1832769,-1.5715044,-1.2377702,-2.5816228
-2.3254626,-1.8832929,-2.4031403,-2.3438551,-1.7734507,-2.0288613,-1.5384079,-0.6866593,-1.8232785,-0.7137350,-0.0856594,0.2431551,-1.0263674,-2.2360103,-1.9521809,-1.8418409,-1.4019294,-2.8175235,-1.8472075,-1.2858317,-3.2000499
-2.2032266,-1.9240479,-2.8259072,-1.7871143,-1.8381870,-2.8144243,-1.4558153,-0.8673019,-1.7555225,-1.0610563,-0.3260109,-0.1118119,-1.1538713,-2.2116539,-1.7821372,-1.8842485,-1.4030598,-2.6752980,-2.1093524,-1.4590479,-2.8336532
-1.7856729,-1.7071770,-2.3985195,-1.9441609,-1.2639438,-2.0943589,-1.2083521,-0.3596857,-1.2491767,-1.1090318,-0.2430662,-1.1708355,-0.7929091,-1.9883505,-1.7788993,-1.6875985,-1.6425232,-2.5496292,-1.9884746,-1.4553969,-2.5469301
-1.9106079,-1.8585072,-1.8718609,-2.2495892,-1.6612852,-2.0470374,-1.2900969,-0.6551127,-1.5833133,-0.9914250,-0.1935274,-0.7728618,-0.7339989,-2.1730657,-1.8928308,-1.8436223,-1.8730490,-2.6770468,-2.0071440,-2.0182602,-2.8165710
-2.4746761,-2.2824874,-2.2332585,-2.1934373,-2.6814566,-1.9119051,-1.7129548,-0.9006808,-2.5329320,-1.1558324,-0.4079753,-0.2541317,-1.0777152,-2.4090354,-2.4841230,-2.6193743,-2.6235676,-3.0218725,-2.1823294,-2.7984941,-2.9371293
-2.1592057,-1.4458084,-1.7465876,-2.0324543,-2.8027587,-1.9482195,-1.6022977,-0.7046189,-2.6790764,-1.6178763,-0.7275797,-1.5527443,-0.9879743,-2.4644434,-2.0003109,-2.6506970,-2.7084799,-2.5683088,-2.3253472,-3.0601785,-2.9416833
-2.0378435,-1.6773026,-1.7203845,-2.1066992,-1.9679973,-1.4046137,-1.0226614,-0.6777346,-2.1306198,-1.8141041,-0.3467064,-1.5970329,-0.7289690,-1.8301122,-1.6543529,-1.9924845,-2.1786273,-2.2550619,-1.9200250,-2.7003591,-2.5794671
-1.8279362,-2.2451854,-1.5027587,-1.9976355,-1.7767073,-1.6128471,-1.1725036,-0.7451476,-1.5346681,-0.9089718,-0.4193910,-0.2680549,-0.6734316,-1.5371430,-2.0080040,-1.6335989,-1.6205626,-1.5961102,-2.0896046,-2.2043712,-2.3446248
-1.9860419,-1.7975385,-1.4822148,-1.7724490,-2.7284057,-1.7552202,-1.0953984,-0.6886425,-1.9432052,-1.0743518,-0.1527939,-0.3827728,0.0966115,-1.2340537,-1.6570312,-1.2790747,-0.6879784,-1.4835602,-2.0139751,-2.0727489,-2.0442786
-2.1678588,-1.3542935,-1.7000418,-1.8511342,-1.4912862,-1.0029444,-0.7720891,-0.5816926,-1.6159438,-0.5930623,0.4911968,-0.4091217,0.3903030,-1.0262960,-0.3494343,-0.9454281,-0.5594293,-1.4570118,-1.0659839,-1.2880105,-1.3637615
-1.9311053,-2.1473134,-0.9228039,-1.8763001,-0.8343644,-2.0886428,-0.8582712,-0.4526332,-1.1619499,-0.2137880,0.4151705,0.2255388,0.4906226,-0.9413941,-0.4047544,-1.1517370,-0.4438249,-0.9566569,-0.5987336,-0.2395335,-0.8348963
-1.6900476,-1.8329561,-1.6659729,-1.3071759,-2.2696619,-1.6334132,-0.7928599,-0.3261413,-1.1594853,-0.8289793,0.0017713,-0.1789941,0.2044224,-1.0918015,-0.3072599,-0.6123028,-0.9214926,-1.0728256,-0.5659924,-0.0783731,-0.7701614
-1.7265946,-1.4969697,-1.6913842,-1.6495162,-1.4516729,-1.2012365,-1.1366535,0.0070575,-1.3279024,-1.0996181,-0.3366257,-1.7255371,-0.1949719,-1.3592770,-0.3470407,-1.0728974,-0.8161961,-1.2422923,-0.3350500,-1.0302591,-0.8614894
-1.7200336,-2.1007712,-1.3472703,-1.1088649,-0.5448577,-0.7478998,-1.1277485,0.1237649,-1.0055547,-0.5099420,-0.0282552,-1.1948013,0.1513400,-0.9448414,0.0856218,-1.3252451,-0.2404157,-0.5929189,-0.0197145,-0.7006475,-0.4424771
-1.5202960,-2.1333344,-1.2134671,-1.0309012,-1.0474865,-0.8167094,-0.6621238,0.2736187,-0.4405678,-0.0791901,-0.0661833,-0.1826381,0.5652971,-0.2034911,0.3850040,-0.4875897,0.0487036,0.1891559,0.6681107,0.5841785,0.2659684
-1.1626788,-1.8729758,-1.1507486,-0.3204094,-1.0132993,-0.1687081,0.0005656,0.2644030,-0.1108637,0.1331831,0.2270131,0.0475649,0.5003750,0.5382991,1.0172583,-0.0649252,1.1361905,1.0584009,1.3106387,1.2908492,0.9000680
-0.8898363,-1.8471134,-1.0287952,0.0958202,-0.1149439,-0.7643257,-0.0544924,0.3748591,-0.5349740,0.2154165,0.5156434,0.1322587,1.2891816,0.5499986,0.7128019,0.4627569,1.1199864,0.7552347,1.0837554,1.2532158,1.4193516
-0.9123955,-1.8922426,-1.0771108,-0.8791557,-0.3939031,0.0523288,-0.1833454,0.4594674,-0.1221074,0.9177372,0.3015371,1.2976515,0.9660870,0.6180501,0.8317457,0.5044953,0.6880019,0.2952191,1.1036538,1.3136806,0.6762145
-1.7538270,-2.3294039,-2.0538638,-1.3251423,-1.1559763,-0.4524083,-0.2416733,0.2145798,0.0203249,0.6950312,0.5092620,1.1925521,0.4717850,0.1995712,0.7318661,0.7355214,0.8231186,0.7586458,1.3122977,1.4560844,1.0555427
-1.3932852,-1.5869724,-1.4072771,-0.5002006,-1.0095155,-0.8121788,-0.0066718,0.2682287,-0.5427508,0.2576350,0.2974142,0.7542974,0.3846643,0.1887154,0.5297960,0.0146430,-0.1443179,0.2248786,0.8975291,1.3453121,0.1321558
-0.1374782,-1.1902353,-0.3295758,-0.3647240,-0.2053358,-1.1232390,0.0390729,0.3651827,-0.0926431,0.0834810,-0.5264240,-0.2403770,0.3441713,0.2193104,-0.1937975,-0.9456805,-0.8328095,-0.2721424,-0.1551235,-0.1489612,-0.5189031
-0.3337044,-1.3330907,-0.3391642,-1.1032124,-1.4379625,-1.7332993,-0.4465435,0.2468530,-0.8424818,-1.0615427,-0.9023821,-0.6336997,-0.1425829,-0.3868895,-0.9233183,-1.6761245,-1.6458861,-0.9371701,-1.2156847,-1.4572153,-1.0728612
-0.7385565,-1.0143282,-1.3132397,-1.5901976,-1.7051270,-1.8928930,-0.9348085,0.0869318,-1.7274288,-1.4869496,-0.8120594,-1.5342932,-0.5782238,-1.4477377,-1.8054756,-2.1987040,-2.4859202,-2.4333978,-2.2739182,-2.0720782,-2.1072929
-0.9818884,-1.0919712,-2.3652840,-1.5943217,-1.6436450,-1.6576045,-1.3407558,-0.2215683,-2.1801147,-1.1812252,-0.9835262,-1.4622805,-0.9884109,-2.3250148,-2.8968325,-2.9740944,-3.1740768,-3.0579679,-2.4567311,-2.5111008,-3.0051317
-0.9332695,-1.6070228,-2.4117746,-1.7336395,-1.9310789,-1.5302596,-1.7116340,-0.5210036,-2.0747235,-1.3745458,-1.2993532,-1.0377750,-1.0312867,-2.2112095,-2.8804028,-2.9930012,-3.1806164,-3.3277674,-2.5464182,-2.8994610,-3.2582419
-0.8221698,-1.5610176,-2.5202925,-1.9991924,-2.2460387,-1.7579392,-1.6119170,-0.3334525,-2.1589653,-1.6700343,-1.2007847,-2.0441298,-0.8807500,-2.5679479,-2.5781345,-2.1945319,-2.7470911,-3.3785627,-2.3723450,-2.1683254,-3.1558034
-0.9988591,-1.5399928,-2.5182149,-1.8549187,-1.5798413,-2.2209125,-1.4577627,-0.3895706,-2.0782180,-0.9875492,-0.5128558,-1.6369278,-0.6932734,-2.5435119,-1.8800850,-1.6812812,-2.2128816,-2.9633653,-1.6950313,-2.1978467,-2.6794384
-0.9770320,-1.4814564,-2.2340751,-1.7117114,-1.8018351,-2.3685803,-1.1651415,-0.4413096,-1.0580124,-0.5525124,-0.3274867,-0.5671170,-0.9373369,-1.8194811,-1.2624465,-1.4193449,-1.7686223,-2.3919728,-1.3894717,-1.8332838,-2.1631720
-0.9189358,-1.4281616,-1.3959988,-1.5294746,-2.0789897,-1.8292011,-0.7844151,-0.0553891,-1.1429628,-0.6330003,-0.3001533,-0.5294487,-0.4806075,-1.1137816,-0.6340433,-1.0836743,-1.7418168,-1.9017521,-0.8780369,-1.4920557,-1.9885147
-0.7287465,-1.3670402,-0.9352237,-1.3010648,-0.2607812,-1.4266602,-0.3278204,0.0368831,-1.0745186,-0.7960974,-0.4719373,-1.1549443,-0.1809286,-0.5809280,-0.3598404,-1.4498997,-1.9416608,-1.6143579,-0.8499328,-1.5664558,-2.0450506
-0.5396140,-0.9554117,-0.4092266,-0.6644678,-0.2670452,-1.2108022,0.1016142,-0.1617293,-0.6258149,-0.7314585,-0.5778603,-0.5452991,-0.0960894,-0.3863623,-0.0937752,-1.7267356,-2.2231724,-1.3464372,-0.9006847,-1.6711307,-1.6455190
-0.7552899,-0.7179291,-0.5260046,-0.8128526,-0.5430328,-1.9246535,0.1016651,0.1986137,-0.1467812,-0.9274180,-0.8301286,-1.0124615,0.0359586,-0.3898436,0.0886887,-1.4886918,-1.7132266,-0.6646610,-0.5967604,-1.4293252,-1.1671463
-0.5643075,-0.6928476,-0.5057583,-0.7344930,0.2790836,-0.9055089,0.1143487,0.3358721,-0.5387490,-0.2680661,-0.6486695,-1.4008075,0.0889905,-0.1848885,0.1513460,-1.2428916,-1.5680466,-0.1408811,-0.8141329,-0.8613911,-1.0593494
-0.5128001,-0.7314295,-0.5217437,-0.7298223,-0.8742136,0.0948081,0.0774682,0.4640597,-0.1179531,0.3339695,-0.4991593,-1.0361781,0.4819275,-0.0878597,-0.1450765,-1.3616083,-1.0831681,-0.1835756,-0.6513403,-0.8336371,-0.9149380
-0.5374393,-1.4073576,-0.3718694,-1.4567928,-1.2838438,-0.7442659,0.0205774,0.3187358,0.2606204,-0.0740867,-0.6942275,-0.1430682,0.2752343,0.0658785,-1.0649952,-1.4521781,-1.1014172,-0.8327536,-0.8252233,-1.0284828,-0.8443348
-0.7483876,-1.8562660,-1.5196879,-1.6770790,-0.9040713,-1.1224203,-0.5036124,-0.0341249,-0.4220875,-0.4704280,-0.3262003,-0.9053261,-0.3919889,-0.5407508,-0.9607214,-1.5505081,-0.8881221,-1.5707666,-1.2920947,-0.9847893,-0.9056893
-0.9155926,-1.5557959,-1.1987031,-1.6994871,-1.1408644,-1.4609519,-0.3179681,-0.1168006,-1.3221053,-0.4015164,-0.3625641,-1.0495279,-0.2374714,-0.7511672,-1.0804869,-1.2796671,-0.5392655,-1.3412722,-0.9278641,-0.2903466,-0.8929800
-1.4047440,-1.5668725,-1.0789125,-1.9140841,-2.3999429,-1.0789629,-0.3280937,-0.1888225,-1.1441486,-0.1486257,-0.0656487,0.3751720,-0.1709397,-0.2821776,-1.2700895,-1.5239108,-1.0372915,-1.4293553,-0.7474921,-0.1379878,-0.9429463
-1.1967037,-1.5090909,-0.9404586,-1.6521817,-1.5399376,-0.9257071,-0.2819290,-0.1007831,-1.2417101,-0.0227058,-0.1669530,-0.3298321,-0.1578435,-0.3142365,-0.8684967,-1.6615102,-1.0002016,-0.6763858,-0.8233398,-0.3928282,-0.7182733
-0.9410895,-1.2980540,-0.8650851,-1.3432046,-1.1457767,-0.5304024,-0.0699663,0.1919875,-0.8382459,-0.0914011,-0.4119340,-0.9434760,0.1826337,-0.1538368,-0.2428535,-1.1748847,-0.9954479,-0.5833803,-0.6118321,-0.5060253,-0.9447901
-0.6753904,-1.4751513,-0.8072256,-0.4388285,0.1359048,-0.5807296,-0.0387312,0.0707626,-0.8360863,-0.1685581,-0.2434254,-0.0563272,0.4986721,-0.0216780,-0.1041620,-0.6328518,-1.0621109,-0.3857781,-0.2299851,-0.3392012,-0.2816526
-0.3201935,-1.7286642,-0.3481286,-0.0679657,-0.5092913,-1.0780203,0.1500476,0.2981603,-0.4105787,0.6775464,-0.0831689,0.0031946,0.6712440,0.1504777,0.6665360,-0.3871976,-0.6088015,-0.0850445,-0.0921642,0.1227301,-0.0225703
-0.3891464,-0.9715713,-0.6508701,-0.2617751,-1.3229123,-0.9586290,0.2540281,0.8439180,0.6913152,1.1062523,0.1353955,-0.5144594,0.3906230,0.2034996,0.3072534,0.3309123,-0.4640807,-0.5301225,0.3454188,-0.0520106,-0.4193942
-0.5227693,-1.5121331,-0.9753975,-0.4344411,-0.3945448,-1.4346670,0.0012115,0.8056933,0.5339379,1.1880807,0.2554200,-0.0903365,0.5727307,0.2066049,0.5983323,0.4530393,-0.0300768,-0.3485902,0.4077468,0.2399753,-0.5441656
-0.8608621,-1.5254424,-0.9967428,-0.2438229,-0.1244170,-1.1818060,0.1300994,1.0218524,0.5244159,1.3198973,0.6514446,1.0089250,0.5697743,0.5814203,0.6090789,0.8453287,0.4386671,0.2426727,0.7531399,0.6730659,-0.3582385
-0.8230455,-1.0980309,-1.5907824,-0.1187857,-0.0634968,-0.9315960,0.5254145,0.8136789,1.0317032,1.1573666,0.4267057,-0.1820688,0.3927072,0.3216807,0.6596720,0.1864292,0.5850877,0.3545676,0.6856770,0.1202015,-0.1203549
-0.6875548,-1.0908452,-1.0036298,-0.2104509,0.6574877,-0.8379050,0.2328696,0.6014217,0.7906777,0.7143007,0.1682526,-0.4485127,0.1168275,0.3550780,1.0525838,-0.4813733,0.4657745,0.1523618,0.7635172,0.3098167,0.3612686
-0.4862677,-1.1132078,-0.4173216,-0.1989440,-0.2603742,-0.8165918,0.2572283,0.7882842,0.6845908,0.7329290,0.2333045,0.5801908,0.5426837,0.7239011,1.0490288,0.2445686,0.3400918,0.2913690,0.8099819,0.3296297,0.3139365
-0.5928289,-0.8569334,-0.7510808,-0.0131594,-0.6354941,-0.6200193,0.3735102,0.6336605,1.1910661,1.4100459,0.2493691,0.2272822,0.7046496,0.6938025,0.4674868,-0.2025939,0.2048614,0.2428709,0.7391035,-0.0726177,0.2525261
-0.8493971,-0.8534618,-1.0364506,-0.4321365,-1.4478297,-0.6330032,0.1145898,0.5821835,0.4391444,0.6543580,0.1669850,-0.7868103,0.2859268,0.1090890,-0.0250962,-1.0464134,-0.6379902,-0.5784737,0.2814199,-0.5669667,-0.1079368
-1.0021830,-1.4801478,-1.1563166,-1.0682515,-1.6170988,-1.0217458,-0.3361666,0.2498391,-0.4671582,0.0736490,-0.3090025,-1.2367892,0.0617203,-0.3282395,-0.5186431,-1.6601591,-0.9720814,-1.3217748,-0.3060870,-0.8509775,-0.9355900
-0.9847982,-1.6942557,-1.0045515,-1.1746303,-1.6109207,-1.6983203,-0.4728268,0.0582555,-1.1650354,-0.2965962,-0.2918366,-1.2544122,-0.1881959,-0.2877610,-1.0118786,-1.4864331,-1.6804962,-1.4578061,-0.7528844,-1.5377086,-1.3497840
-1.0327306,-1.1222880,-1.0256172,-1.3021183,-0.8333546,-1.2831565,-0.5411203,-0.0178625,-1.4526390,-0.5995216,-0.3181365,-1.7740213,-0.4956649,-0.8301933,-1.2712532,-1.8178743,-2.0466325,-1.3199992,-1.0482171,-2.0505257,-1.3422614
-0.9369882,-0.7146229,-0.8476110,-1.3454323,-0.2393726,-0.8365090,-0.4311256,-0.3527828,-1.6115741,-1.2516617,-0.5921692,-1.1894487,-0.2744111,-0.6327523,-1.3170375,-2.2020020,-2.4362047,-1.3199625,-0.8934395,-1.8213667,-1.2820146
-0.5817392,-1.0094478,-0.7599744,-0.9911187,-1.3252594,-0.8094284,-0.2601351,-0.1767151,-1.4546071,-1.2048219,-0.7534162,-0.7182308,0.0300910,-0.2758333,-1.1691996,-2.1526642,-1.8089924,-0.8476060,-0.9380979,-2.1556721,-1.3548387
-0.5054724,-0.2084314,-0.3922069,-1.1695588,-0.2114651,-1.0089103,-0.4371119,0.1798796,-1.3183371,-0.9621935,-0.8103231,-1.6672570,-0.3449522,-0.3675396,-0.7386780,-2.0132341,-2.1800356,-1.5158179,-0.6367832,-2.0287745,-1.4503294
-0.8127480,-0.0771019,-0.6792226,-0.8751289,-0.7800404,-0.5276123,-0.2368203,0.3059549,-0.8649760,-0.9399073,-0.7692410,-1.5890318,-0.6597549,-0.5916228,-0.5200200,-1.5738099,-1.7585176,-0.7546575,-0.5621520,-1.9305493,-1.4372506
-0.8610755,-0.1541035,-0.5316111,-0.6141925,-0.6283259,-0.8370678,-0.4291090,0.0740636,-0.5939931,-0.5764654,-0.5364115,-0.3545936,-0.1231851,-0.3094408,-0.0527406,-1.2830670,-1.5588558,-0.6487613,-0.0367909,-1.3674082,-1.0754095
-0.6816847,-0.3610763,-0.8252648,-0.8717840,-0.7132380,-1.0101707,-0.5255151,0.0942422,-0.2754098,-0.6571361,-0.3940047,-0.5573460,-0.2550362,-0.2242219,-0.1828400,-0.8042142,-1.1942194,-0.7377757,0.1944313,-1.1458694,-1.1874979
-0.8555868,-0.0792458,-0.7273481,-0.8788521,-0.6632951,-0.5707122,-0.2617793,0.2398228,-0.1843058,-0.8457446,-0.5321813,-1.5653332,-0.3747160,-0.2151016,-0.1344483,-1.5532854,-1.7411867,-0.8877686,-0.1139012,-1.1944222,-1.1216207
-1.0607982,-0.4208008,-0.6889287,-1.1682950,-1.0738713,-0.6259674,-0.1881183,0.0281833,-0.0581564,-0.7589926,-0.8526246,-0.6751369,0.0875762,0.1517776,-0.1470279,-1.5403255,-1.7464284,-0.7840068,0.0855485,-1.2659757,-0.4758042
-1.2957909,-1.2062597,-0.6985550,-1.1678448,-1.2326077,-0.8243685,-0.3139083,0.0522438,-0.6028030,-0.7508704,-0.5909062,-0.1212779,0.3370057,0.0391018,-0.8601421,-1.1067570,-1.1427566,-0.1086107,0.3913643,-0.9965022,-0.1517961
-1.3389407,-0.9784964,-1.1466323,-0.9353599,-0.9791757,-1.1444125,-0.7129692,0.2742718,-1.1636984,-1.0459872,-0.4687913,-0.6265839,0.2277822,-0.2935548,-0.4114209,-0.8288944,-0.7501194,-0.2049728,0.4781551,-0.4137305,-0.1892506
-1.5389274,-0.5995584,-1.2349138,-1.0767349,-0.4986016,-0.9647121,-0.3361464,0.2511418,-1.0933741,-0.7238221,-0.2466438,-0.4435123,0.1617188,-0.3217377,-0.2294862,-0.9862329,-1.0166377,-0.7027181,0.2450988,-0.2263640,-0.1856341
-1.6996341,-1.1683444,-1.2092329,-1.3762182,-0.0711506,-1.3391743,-0.3950337,0.0096371,-1.1423386,-0.7700290,-0.2334624,-0.1958669,0.3079608,-0.6513091,-0.4848745,-1.2478547,-0.6949468,-0.6613250,0.3063320,-0.6468683,-0.1744522
-1.7831982,-1.4239359,-1.3960975,-1.3528545,-0.1008100,-0.8782591,-0.2196815,-0.1147738,-1.3536954,-0.6259785,0.0639962,-0.5525705,0.5250347,-0.0588913,-0.5915798,-0.8785962,-0.2991949,-0.3776078,0.3537344,-0.3867157,0.0183654
-1.3931578,-0.9716275,-1.2473633,-1.2670490,0.2867833,-0.3032950,-0.4065080,0.0693169,-0.4127437,-0.3554392,0.4905028,-0.6519594,0.5923570,-0.0433971,-0.3823769,-0.8132958,0.2800026,-0.4815905,0.1164243,-0.3501196,0.1216990
-1.4162402,-1.2380852,-0.6020935,-1.5016354,-0.1456243,0.0552877,-0.1341058,0.0015662,-0.7394140,-0.1905849,0.6115171,0.4804707,0.5689230,-0.2556077,-0.7817733,-1.0952053,-0.2542844,-0.1621806,0.2513817,-0.4884534,0.0780177
-1.1047819,-1.3840339,-0.3359387,-1.1993899,-0.3393854,0.2521646,-0.0521544,0.0755619,-0.7639054,-0.3471364,0.7786497,0.0849331,0.8499873,0.0392998,-0.6663660,-0.8255805,-0.2688647,0.1108600,-0.0104554,-0.1975873,0.0033023
-0.9584603,-0.7360799,-0.7828888,-1.2414669,0.1074495,0.0733759,-0.0904230,0.1526476,-0.2106249,-0.2976524,0.7539461,-0.9605011,1.0477221,0.1511298,-0.5335227,-0.6315800,-0.2239414,-0.0397720,0.2616570,-0.4901728,-0.2663987
-1.4808555,-1.0651231,-0.6336472,-1.4020216,0.3524108,-0.1996436,-0.3355662,0.3364353,-0.2064757,0.1553780,1.0135572,-0.2481772,0.9600947,0.1119524,-0.9635074,-0.4138043,-0.3250313,-0.1353014,0.5215283,-0.0606530,-0.2627175
-1.8248453,-1.1761853,-0.7346277,-1.2546179,0.6165743,0.3643420,-0.1199965,0.4682045,-0.5363382,-0.2338501,1.0283928,-0.0364270,0.7091033,-0.2636981,-0.6206354,-0.3633869,0.3903386,0.0900651,0.3660600,-0.1527877,0.0363256
-1.6718097,-0.4446433,-0.6813449,-1.4414688,-0.6310827,0.2025089,0.1756428,0.2601826,-0.2876744,-0.2327272,0.8506173,-0.5226194,0.7420848,0.2232665,-0.6173010,-0.1366260,0.5962954,-0.5684520,0.6232242,-0.1944783,-0.5292252
-1.9794343,-0.8786175,-0.5340732,-1.8532435,-1.1232597,0.1433620,0.1870726,-0.3185696,-0.2248777,-0.4090304,0.7626498,0.5359066,1.0485920,0.3837611,-1.0760269,-0.7452800,0.0237987,-0.5287331,0.0660333,-0.6072851,-0.6472252
-1.9894484,-1.2117144,-0.8466696,-1.6813172,-0.6848372,0.0613075,0.1054193,-0.2721967,0.1450345,-0.5459892,0.6306604,0.7259424,0.5504444,-0.1427233,-0.8887169,-0.6130988,-0.2376396,-0.5822408,-0.3555139,-0.9165933,-0.3180237
-1.7473762,-0.6213831,-0.6974238,-1.1376013,-0.4737217,0.1020851,-0.0118691,0.0810651,-0.3818659,-0.2427045,0.9736153,-0.0138005,0.6014971,-0.1424823,-0.2132606,0.3127441,0.2183657,-0.0300191,0.3496090,-0.1133415,0.0045333
-1.4487715,-0.9568865,-0.8215084,-1.3240420,0.0293485,0.3570678,-0.6503549,0.2326105,-0.1544154,0.2381965,1.2274153,0.4532332,0.8047558,-0.4581367,-0.2020870,0.3003875,0.4257431,-0.1219046,0.7980617,0.8450026,0.2531517
-1.8877337,-1.1747317,-1.0624515,-1.3813798,-0.6056005,-0.1321983,0.1254550,0.0333265,-0.0205419,0.3155522,1.1189787,1.6532140,1.1777222,-0.2271950,-0.0788203,0.0420250,0.6041157,0.7143505,0.7886541,0.9617137,0.1030355
-1.3548665,-0.8076936,-0.0783548,-1.1692642,-0.0400867,0.3895595,0.6241161,0.3425636,-0.7286831,0.0825071,1.0662280,0.7948493,1.3486799,0.7393365,-0.3164868,-0.2537960,-0.2756445,0.6831166,0.5953407,0.3592720,0.1529752
-1.5192215,-1.0836042,-0.5513501,-1.6869148,-0.6591251,0.5633304,0.1887450,0.3018227,-0.5935010,-0.2524128,0.9672298,0.8151801,0.7899632,0.5931695,-0.5863930,-0.2740189,0.0877305,0.2786997,0.6208684,0.6639743,0.1611316
-1.5133436,-0.4071955,0.0077036,-1.6240505,-0.7442244,0.4583489,0.8827228,0.1482798,-0.1676419,-0.0182660,0.7793827,1.2447821,0.8058779,0.7852054,-0.4924226,-0.2503380,-0.2691067,0.5340441,0.5524765,0.4716660,0.2350092
-1.9519575,-0.9063582,-0.0661817,-2.2244763,0.1333870,0.7517920,1.0402744,-0.0764714,-0.3881201,-0.1461350,0.6982785,1.1566402,1.0276072,0.9659054,-0.9293179,-0.4723373,0.2753538,0.5253779,0.5912343,0.7267739,0.6613700
-1.6715055,-1.0111783,0.4008965,-1.7493515,0.0378729,0.7525148,1.0595790,-0.1742544,-0.6947287,-0.3242540,0.5691568,0.2645783,1.0094208,1.1136954,-0.8308174,-0.4905541,0.1498236,0.3308620,0.2285398,0.2611358,0.3588896
-1.4648997,-0.7662096,0.4983459,-1.5124612,-0.1557181,1.0618590,0.6254842,-0.0284933,-0.7669417,-0.1532716,0.5973000,0.2790712,0.7456772,0.8465153,-0.7096713,-0.6151502,-0.0951633,0.3167376,-0.3140286,0.5383280,-0.0267773
-1.7760539,-1.0334197,0.2421067,-1.3286916,-0.7215881,0.6355547,0.7600229,0.0501408,-1.0868940,-0.4694988,0.1693044,0.6430979,0.4972525,0.6608054,-0.8017528,-0.6202959,-0.5063752,0.7259306,-0.0584092,0.4229897,-0.0766632
-1.3907969,-0.2253302,0.4614250,-1.5907503,-1.0029247,0.6881157,1.0926414,0.0351101,-1.3602587,-0.3371882,-0.2580565,-0.0630286,0.7575445,0.8308418,-0.3573759,-0.6284797,-0.8046671,0.4888765,0.4939446,0.6393904,0.1882528
-1.3033565,-0.1997869,0.3675917,-1.3947482,-0.4873402,1.3621451,0.6535527,-0.0766101,-0.8299311,-0.1137064,0.0839970,-0.2032617,1.4887406,1.0075865,-0.0107333,-0.4858727,-0.0194663,0.7201019,0.3814322,0.7835909,0.7403895
-1.4980218,-0.7794299,0.6609839,-1.3876482,-1.3726285,0.6202407,0.7717462,-0.1294253,-0.2177124,0.0802901,0.2579842,0.5488600,1.1192722,0.9744765,0.0061818,-0.4434747,0.5242358,0.7672408,0.4802870,0.9653124,0.7007160
-1.6758002,-1.0473816,0.1488218,-1.5218571,-1.5021950,0.0000435,0.8921000,0.0383985,-0.4341991,-0.3110952,0.4193414,-0.3058020,1.0283762,0.9300957,-0.1425164,-0.4136896,0.4246063,0.5120366,0.4965581,0.6656286,0.8318632
-1.3469349,-0.8910046,-0.0227594,-1.4495032,-1.2980406,0.0040379,0.5743427,0.2607071,-0.5943900,-0.3156331,0.6236864,-1.3273526,0.9841102,0.0724283,0.0022906,-0.4533346,0.4993045,0.7955968,0.6185939,1.0104578,0.6464049
-1.3377877,-0.6609801,0.3253179,-1.4921638,-1.4987539,0.3865530,0.7582616,0.2392466,-0.3394962,-0.5138958,0.5243350,-0.1711402,0.8067744,0.3605938,-0.2809549,-0.2951230,0.4503168,0.7254832,0.6268713,1.2732501,0.6593204
-1.7582235,-0.7750001,-0.2732612,-2.1052151,-1.3242207,0.5377814,0.7951928,0.2048429,-0.0257294,0.0975583,0.4958708,0.4389452,0.8247449,0.2775700,0.0153974,-0.6089456,0.2409158,0.4032035,0.6755650,1.0977800,0.3734265
-2.0129912,-0.9686067,-0.2391970,-2.0218749,-0.9808587,0.5323584,0.7734467,0.1536375,-1.1000047,-0.3530580,0.6766678,-0.3332910,0.9251009,-0.3152914,-0.2059422,-0.8208566,0.1653471,-0.1557819,0.6456549,0.8147706,0.1814450
-1.7704656,-0.8921967,-0.4102481,-2.1961415,-1.6011385,0.3296744,0.3737831,-0.1773163,-1.1239626,-0.8999172,0.8725238,-0.1048302,0.6660830,-0.4356536,-0.2064972,-0.6821865,0.4712890,-0.3401849,0.2828881,0.1052281,0.0893734
-1.6983057,-1.2455896,-0.6061732,-1.9440310,-2.2496266,0.0447481,-0.0028588,-0.1921059,-1.5519205,0.0291129,0.8072889,0.4542784,0.4544666,0.2119300,-0.0350020,-0.7534946,0.3692800,0.0820253,0.3180822,-0.2082909,0.0848495
-2.2686684,-0.8432984,-1.1532346,-1.8351622,-0.9936433,-0.3893074,0.2270188,-0.0698422,-1.2977160,-0.0048944,1.1505848,0.1617905,0.3069039,-0.1550438,-0.1116533,-0.4651579,0.5901477,-0.5703952,0.4260853,0.5056334,0.2896237
-1.8129561,-0.6210659,-0.7251830,-1.7928556,-1.1169097,-0.4019446,0.3799339,0.1387545,-0.7201946,0.2289973,1.0856402,0.1394999,0.3951948,-0.3440350,-0.1860569,-0.3066516,0.3530388,-0.3086093,0.7267644,0.6199363,0.3941444
-1.7960573,-1.0938532,-0.5328625,-2.0582302,-2.0252912,-0.1765395,0.5671916,-0.0683598,-1.4782397,0.0793390,0.5168128,0.6669189,0.0529955,0.0636078,-1.1352180,-0.8708697,-0.3739840,0.1476892,0.4812717,0.1140670,0.2615302
-1.6752570,-0.8939230,-0.9160390,-2.0660162,-1.4760658,0.2047057,0.7984479,-0.1072815,-1.8919510,-0.3597957,0.4992292,0.2662776,-0.0566238,0.4537772,-0.7361164,-0.7780555,0.3855400,0.1893530,0.4118426,-0.2926999,0.3865681
-1.5082792,-0.6936890,-0.1235684,-1.7934959,-1.2235055,-0.2676260,0.9732609,-0.0561442,-0.7027009,-0.2994248,0.7058033,-0.6300668,0.6007670,0.1948179,-0.1974687,-0.3373952,-0.1047833,0.6304847,1.0456938,0.0724900,0.2772729
-1.4393562,-0.9015204,0.2799902,-1.8107433,-1.5839853,-0.5660049,0.9010748,-0.1196526,-0.4797572,-0.1558305,0.4739603,0.1807661,0.9303490,0.4664424,0.1957117,-0.3679357,-0.6148639,0.2699875,0.5948463,-0.4159189,-0.2160392
-1.4710768,-0.6239543,0.0683780,-1.5591508,-0.7491438,-0.3618938,0.7400324,0.1919469,-0.7008057,0.0950516,0.7430379,0.3310191,0.5796084,0.5773064,0.0290796,-0.6565425,-0.4759884,0.2185257,0.8744344,-0.5133154,-0.0289297
-1.2578715,-0.2871963,-0.1506119,-1.2680628,-0.7593356,-0.2685674,0.7967721,0.3946108,-0.6996134,-0.0052633,0.8006127,-0.5064643,0.6964107,0.9162709,0.3725098,-0.6509979,-0.1637098,0.4281246,0.9100165,-0.4602898,0.0516706
-1.0911888,-0.4098319,-0.3616089,-1.3050777,-1.2634819,-0.7489278,0.7714208,0.3947357,-0.4805295,-0.3319380,0.4220679,-0.3430324,0.5240207,0.8772931,0.4587438,-0.4479525,-0.0058689,0.4025243,0.5418968,-0.3241115,0.3390058
-1.4154254,-0.6170945,-0.5703517,-1.2822844,-1.9687572,-0.8859512,0.6316929,0.4621545,-0.7120500,-0.2763039,0.4934532,0.3438754,0.4467600,0.7434236,0.0565337,-0.8914497,-0.6712459,0.2253666,0.0040556,-0.5482258,-0.2878836
-1.2101268,-0.7476022,-0.2060994,-1.3708909,-2.1362820,-0.3139195,0.7102478,0.5926369,-0.1078572,-0.6828688,0.4639478,-0.3788903,0.6530780,0.2897895,0.3552794,-0.8984554,-0.3664066,0.1469960,0.5181649,-0.6173275,-0.5413402
-1.1190345,-0.3237354,-0.4600169,-1.6709094,-0.8631532,0.1645416,0.7009683,0.3858687,-0.0548925,-0.8040448,0.0617704,-0.4919580,0.6351191,0.0096285,0.6845319,-0.5657486,-0.3311162,-0.5913991,0.4923591,-0.7548712,-0.3071145
-1.1013702,-0.1821842,-0.0402284,-1.9622406,-0.2620084,-0.0741385,0.7420174,0.3072586,0.1126531,-0.2383459,0.1742408,-0.3826428,0.7097527,0.3025571,0.5507408,-0.1157473,-0.3240241,-0.6872188,0.6320348,-0.2690662,-0.3341005
-0.7019655,0.0139910,0.1572549,-1.8301759,-0.9293850,-0.3308793,1.0799963,0.4187934,-0.2787711,-0.5963005,0.2898865,-0.7232655,0.7407645,0.4602602,0.5075475,-0.2770371,-0.4662373,-0.1138531,0.5445861,-0.0194194,-0.0237632
-0.7755266,-0.8352857,-0.0594749,-2.2749536,-1.9691433,-0.3457229,0.5180594,0.1859697,-0.6758922,-1.0348556,0.4971219,-1.0888453,0.9584352,0.4290730,0.0019544,-0.4856148,-0.5761541,-0.2965395,0.4304350,-0.4452421,0.1017642
-1.2857314,-0.8152764,0.1004518,-1.5180353,-1.4247509,0.0301298,0.6782626,0.3129780,-0.8357198,-0.5265711,0.1179855,-0.3473197,0.7403522,0.3859861,-0.2483966,-1.2081796,-0.1712913,-0.2297197,0.4112187,-0.7471477,-0.1678092
-1.1707380,-0.6672053,-0.1408117,-1.4959375,-1.4902509,-0.7628856,0.8596711,0.4061779,-0.8387560,-0.3354597,0.2866552,0.1159662,0.9937063,0.5980112,-0.1433448,-1.3430973,-0.5119331,-0.1519765,0.3124672,-1.0284081,-0.5802647
-0.9310768,-0.1757468,-0.0664933,-1.9751619,-1.1698027,-0.5603707,0.6345372,0.3110101,-1.1575822,-1.0335717,-0.0024436,-0.7365789,0.8395126,0.5337519,-0.1180740,-1.3520496,-0.8769739,-0.4361039,-0.3042972,-1.2959479,-0.5148948
-0.9593145,-0.5492371,0.6694868,-1.6851642,-1.2299577,0.5317811,1.1640573,0.2584808,-0.2409254,-0.5938991,-0.3312019,-0.3819648,1.1396858,0.7157376,-0.0234645,-1.2543998,-0.8712417,-0.3996456,0.0553041,-0.7593858,-0.0206175
-0.6747943,-0.1433526,1.1183162,-1.1193175,-0.5740835,0.4991557,1.4514397,0.3650067,-0.0034989,-0.3954203,0.0215912,0.7507219,1.4585003,1.4789796,0.0152501,-1.2092438,-0.4668881,0.5726359,0.0836368,-0.4283237,0.1658905
-0.5694274,-0.0472360,1.3334004,-1.4275471,-0.8751385,0.4319401,1.5213448,0.6626192,-0.1125742,0.0226555,0.3098749,0.3413098,1.2534382,1.4877542,0.1318505,-0.8040869,0.4328284,0.3384473,0.3453439,-0.0726157,0.1229746
-0.7843713,-0.3847698,0.9844543,-1.6746175,-0.3481412,0.8416450,1.1619823,0.5930941,-0.1224287,-0.4265470,0.4598209,0.3868828,0.7292878,1.1927906,0.0019483,-0.1487585,-0.2328060,-0.1315689,0.4001392,-0.4524449,-0.3439837
-0.8859916,-0.6936603,0.7899404,-2.0895422,-1.2060175,0.7379780,1.0714279,0.0650819,-0.3549754,-0.3213535,0.4493992,0.8042333,0.8239176,0.8584245,0.2617465,-0.2403925,0.2830541,0.2419719,0.6592019,-0.1262453,-0.0386365
-0.9147936,-0.6465974,0.4841991,-1.6382831,-0.8784145,0.1701331,1.1124402,0.3589876,-0.5459460,-0.3670360,0.4185085,0.2180183,0.8646040,0.6435410,0.2735529,-0.7689350,-0.4500907,0.1630649,0.7749665,-0.2568527,-0.1223699
-0.7559574,0.1329618,0.1447039,-1.5724107,-0.5701466,0.2421443,1.1317593,0.3755630,-0.6379988,-0.3441659,0.5045783,-0.5359231,0.9118069,0.5412683,-0.0665155,-0.5493466,-0.2228887,0.0386478,0.2854971,-0.1653838,-0.1788815
-1.4506586,-0.8248655,0.3979444,-1.4956013,-0.9086525,0.3674460,1.2848340,0.2384901,-0.4049079,-0.0211424,0.5646670,0.4182935,1.1134301,0.9711157,0.3401209,-0.4990532,-0.3999844,0.6466965,0.3302563,0.3608229,0.1339097
-1.3118793,-0.9656505,-0.0506530,-1.3892497,-1.4790158,0.4320070,1.4330401,0.4658130,-0.2810497,-0.1747953,0.3044471,0.2437650,1.0590395,0.7665799,0.0316236,-0.6735911,-0.5259071,0.4193222,0.4117837,-0.2167875,-0.1998862
-0.8978114,-0.2679924,0.1479363,-1.6514238,-0.9514770,0.9450572,1.2245487,0.4324001,-0.4692836,-0.6157621,0.5444800,-0.4120564,1.4262805,0.8145416,-0.1470935,-0.0565716,0.2830233,-0.0592960,0.6709847,0.4846200,0.2091692
-1.0762360,-0.5637975,0.0023967,-1.6246138,-0.9944688,0.7548981,1.1722898,0.4724311,0.2070577,-0.4713393,0.8256726,0.4227180,1.3947591,0.5666221,-0.0838788,0.0291422,0.1809853,0.0426160,0.8452224,0.3028961,-0.1498352
-1.2587837,-0.6292708,-0.1743737,-1.5156490,-0.6616686,1.1066877,1.2671021,0.5070062,0.1912321,-0.0389033,0.8276562,0.8428068,1.4283272,0.5283769,0.1323802,-0.2221502,0.2175419,0.6774097,0.7374936,0.0949236,0.3917446
-0.9437908,-0.3703665,0.2757725,-1.6606481,-0.5687794,1.1112105,1.3182745,0.7974440,0.2142321,-0.2820922,1.0230726,0.2042052,1.3505567,1.0710763,0.5963222,0.2183176,0.4843764,1.0598119,0.7064683,0.5920205,0.6070215
-0.5882562,-0.1973781,0.8800203,-1.6566623,-0.3586341,1.5843135,1.9304068,0.6816459,0.2494124,-0.1364010,1.0978581,0.0354069,1.1840338,1.3245972,0.8157469,0.1664165,0.8920098,1.1777412,0.8037076,0.5081753,0.3451091
-0.9039022,-0.6460645,0.8161251,-1.0330350,-0.3410852,1.5198951,1.6766913,0.4918979,0.2932850,-0.1301567,0.9412011,0.4279468,1.2617248,1.6214386,1.0307279,0.2546969,0.1226994,1.0523254,1.1212522,0.4720954,0.8014737
-1.0517457,-0.0218377,0.6161641,-0.7298828,-0.1729398,1.9411205,1.5375456,0.6878521,0.3352523,-0.4355550,1.2021731,-0.0009268,1.5356632,1.3172997,1.3004612,-0.0132769,0.3078661,1.4413400,1.3640954,0.7429319,0.9759143
-0.9007863,0.1188305,0.7243598,-1.1181999,-0.7805421,1.3774290,1.4770150,0.5743111,0.4435762,-0.1649176,1.2454432,-0.8915242,1.2803358,1.3187354,0.6034975,-0.1666828,-0.1811756,0.9252582,1.3158864,0.4220234,0.3270397
-1.5850137,-0.2453536,0.5239849,-2.2212350,-0.7441143,1.3010830,1.7083223,-0.0080590,0.3293630,0.2822054,1.3147091,0.9628519,1.3320410,1.2463334,0.3240716,0.1629750,0.2463354,0.9758326,1.1298589,0.0747907,0.5547993
-0.9655304,-0.5011505,0.7613640,-0.6891115,-1.0851904,1.2597196,1.8262533,0.1402165,0.8131490,-0.0323538,1.3663826,0.8798519,1.7138013,1.3998672,1.5697165,0.9505119,0.3007502,0.9524212,1.5215138,0.0943990,0.5098990
0.0957242,0.4003190,1.2732044,0.4503674,0.5931459,1.5664266,1.9171004,0.9490678,1.4423224,-0.1989606,1.2714796,0.0112049,1.4124393,1.5961907,1.8329641,0.6517785,0.1721604,1.0623225,1.4773347,0.0029525,-0.2007638
0.1745441,0.3918242,1.3632389,-0.0066058,0.2105113,1.6464087,1.7251409,1.0706015,1.5715851,0.2511281,1.0290183,0.9416757,1.4718403,1.7708788,1.6992414,0.8232016,0.0333613,0.8135052,1.5039918,0.4639177,0.0861052
-0.2819724,-0.1126267,0.7763958,-0.6946035,-0.9260172,0.9913518,0.9851033,0.7994989,1.1709061,-0.1831535,0.8915083,0.9669048,1.2636225,1.3029242,1.3602217,0.6901201,0.0705268,1.0404376,1.4763525,0.3147631,0.0705656
-0.5213252,-0.0380643,-0.2007105,-0.6250712,-0.7021457,1.0360535,0.7036490,0.7904190,0.6444095,-0.2012414,1.4210157,0.0898639,0.7331567,0.5467045,1.0749019,0.2791321,-0.0644865,0.8259298,1.3477923,0.7474045,0.0604554
-0.2961307,0.5962108,0.5421386,-0.5806875,0.8655283,1.1726465,1.2351663,0.7111423,0.7275687,0.0401907,1.1258329,0.2603424,1.2768476,0.9644191,1.3174267,0.4256400,-0.5347570,0.8271596,1.1487961,0.9237055,0.2136157
-0.2778330,0.2748257,-0.0559522,-0.3633672,0.3370128,0.7278850,1.3161085,0.6265844,0.9812562,0.1971895,0.6005985,0.8401459,0.8287070,0.6352726,1.7646577,0.7917855,-0.4179175,0.9014668,1.3321040,0.1080662,0.2056674
-0.1143704,0.2223135,0.0603867,0.3313916,-0.8375133,0.7486124,1.1000280,0.8256088,1.1159223,0.4607930,0.8169666,-0.1458038,0.3993342,0.6048463,1.8667777,0.1864362,-0.5598026,0.6400456,1.4792317,0.0315910,0.0360950
-0.1528932,0.4189663,0.1081008,0.1273415,-0.2710185,0.4412317,0.5692925,0.7962844,1.4726462,0.3269507,0.9522462,-0.9042685,0.3566569,0.7021182,1.9631730,0.0780143,-0.4093880,0.4095065,1.3467549,0.2008940,-0.3386418
-0.0269930,-0.1281354,-0.3088675,-0.0153638,-0.4513672,0.3267911,0.8161579,0.8278016,2.2095096,0.3560040,1.0249332,0.0641050,0.5605730,0.8862880,1.7554483,0.5684041,-0.0658325,0.5859301,1.4408808,0.0734942,-0.0725065
-0.1732784,-0.2853294,-0.4118844,-0.0483720,-0.6363001,-0.0776786,1.0224359,0.7968810,1.8203651,-0.1055822,1.0362462,0.2690322,0.4661017,1.0101806,0.2829520,0.4344539,-0.1529283,0.4816813,1.0966712,-0.1705113,-0.7136193
-0.4568030,-0.7550911,-0.6677474,-0.1785800,-0.7909858,0.6170744,0.6667747,1.0050718,1.5021367,-0.0452437,1.1407622,-0.1927001,0.3214092,0.3915620,0.6334611,0.2481424,-0.0987838,-0.2810030,0.7720572,0.0091084,-0.5051712
-0.4735260,-0.7200050,-1.1665707,-0.5461931,-0.2825776,1.1746638,0.4166394,0.9671520,1.3004353,0.9349371,1.2135823,-0.0042730,0.4614266,0.3380556,0.7536409,0.3893343,-0.7927617,0.0754446,1.0446392,0.1691664,-0.4815196
-0.4687084,-0.3809126,-0.5920858,-0.6506873,-0.0222812,0.3634372,0.6039417,0.8457711,0.7393714,0.5193320,1.2578267,0.4670684,0.3382878,0.3162948,0.8667747,0.2266312,-0.1349814,0.1058753,0.9652402,-0.3010675,-0.0116980
-0.1623328,-0.3686462,-0.8170853,-0.4169303,0.2275322,0.2050796,0.4576037,0.7820784,0.3287039,0.4942534,1.4358042,-0.4498973,0.2356092,0.0823258,1.7105422,0.6767045,0.4603191,0.3909166,1.3962877,-0.1381595,0.0907321
0.1447443,-0.1562535,-0.3326856,0.0598519,0.3750243,0.5842773,0.6177905,0.8952438,1.0568087,0.3069211,1.3243297,-1.1582628,0.5247325,0.4428566,2.2941568,1.1356518,0.3510180,1.2653140,2.3534830,0.4854172,0.5418461
0.3029994,0.0031825,-0.3781799,0.6738461,0.2205342,0.6904380,0.9043382,1.0160769,2.0981100,0.9269084,1.1562496,0.4371308,0.7265139,1.0495542,2.0511861,1.1540099,0.4885375,2.0702157,2.6652045,1.0778142,0.4820545
0.1829662,-0.1685535,-0.4899981,0.8126968,0.3731580,0.2810250,0.9611632,1.2002852,1.9008291,1.2219068,0.9673606,0.0056955,0.8577909,0.7636156,2.0251997,1.4470458,0.6603310,1.4793519,2.3300483,1.2714869,0.6897125
0.0391998,-0.0370422,0.1005240,1.0391493,0.1380835,0.3773931,1.2674383,1.1473063,2.2002459,1.2871079,1.4903625,-0.5723812,1.3876644,0.8992656,2.1852994,1.3991004,0.2189189,1.2508417,2.8727787,1.4851393,0.7523662
0.0111948,-0.1485555,0.0349542,0.6487746,0.1701540,0.5628221,1.4060861,1.0541027,2.1270924,0.9105704,1.5052446,0.5388373,1.0936134,0.9404461,1.8285387,0.9981055,0.0753531,1.2204183,2.4955165,0.8755965,0.6662860
0.0811627,0.0180994,-0.4573281,0.0633917,-0.3241946,1.0396376,1.5525030,0.8857495,1.5314904,0.3048272,1.6119690,0.6012857,0.9617290,0.5727500,1.9551945,0.5418510,0.1438802,1.4518631,2.2956722,1.1340334,0.9432973
0.1508095,0.3648947,-0.0593634,0.5093161,-1.2778457,0.9648114,1.6243069,0.8824759,1.0307449,0.1443937,1.4035155,-0.1845780,1.0177619,1.2139021,1.5397388,0.7170975,0.4521106,1.5249788,2.0145175,0.8044461,0.8557444
0.0719859,0.2450476,0.2692941,0.4266935,-0.6566876,0.7609959,1.6901010,0.9092540,1.4269542,0.2700926,0.8837990,0.4977638,1.4903557,1.6112214,1.7990491,0.3880174,-0.0511437,1.4176729,1.6297355,0.9030703,0.9514388
0.1089262,0.7796795,0.2866703,0.5883758,-0.8671779,0.4681635,1.4906079,1.0048188,1.8747811,0.2581684,1.2285805,1.0101188,1.3525350,1.4466619,1.5620912,0.2470653,0.0524660,1.8989084,1.9310938,0.8072516,0.7982671
0.4943029,0.4428101,0.3285013,0.9439887,-0.5762340,0.4400257,1.6736076,1.0715501,2.0774531,0.4655827,1.4483855,0.3338938,1.4280939,1.3924925,2.1669741,0.1983919,-0.1228645,2.3035796,2.4457822,0.5714374,0.1589395
0.7047412,0.5760872,0.5548055,0.7926932,-0.3123253,0.9928797,1.9365450,1.1338511,3.4311395,-0.2622752,1.2976904,0.4784229,1.5101655,1.8936895,2.1253009,0.5122184,-0.2721305,2.1017718,1.9325950,0.4328688,0.1492440
0.5078231,0.4759381,0.8605564,1.0102268,-0.0150618,1.0924194,2.0441089,1.1249230,2.5506263,0.1913408,1.2201581,0.8201137,0.8564373,1.5780259,2.0892034,0.7973226,-0.4661889,1.4254277,1.8659776,0.1548643,-0.3006855
0.1675370,0.2828214,0.3170362,1.2504444,0.3525316,0.7083282,1.7549525,1.2205361,2.5519428,0.0227683,1.2094840,0.1893629,0.8880433,1.6579764,2.0372922,0.5297684,0.1316089,1.6447715,1.6281614,0.4403737,-0.0659259
0.3535352,0.2513280,-0.1653707,1.1162044,0.0191240,1.0638028,1.2403657,1.2495443,2.5720170,0.6340492,0.9852376,-0.4043748,1.0805044,1.3266572,2.0813506,0.6214637,0.0289560,1.2497718,1.5116273,0.4680286,-0.2961071
0.6140195,-0.0534102,-0.3523791,0.9150224,-0.2879707,0.3514860,0.9603871,1.0755535,2.0077286,0.7625965,1.2295395,0.5819418,1.3565779,1.3313547,1.4231732,0.5072669,-0.5762420,0.6940373,1.4805062,0.1659574,-0.1296036
0.3525741,-0.1718814,-0.1565752,0.3119887,-1.5518838,-0.1597790,0.9346312,1.0075250,1.3391769,0.1668201,1.5889786,0.6971259,0.8005176,1.2589493,1.0194930,-0.0074258,-0.3821515,0.4970605,1.2804490,-0.3272787,-0.4448052
0.4950720,0.1424452,-0.5772746,0.2911886,-1.0729970,0.5420131,1.1622765,1.1100242,1.5082322,0.5816696,1.0657500,-0.2743369,1.0342628,1.0215197,1.1231133,-0.1145612,-0.1171980,-0.0324572,1.6494434,-0.2808582,-0.3659115
0.3708458,-0.2278263,-0.4964607,0.3109383,-0.9836457,0.4318857,0.6811111,1.2467798,1.5266285,0.9264390,1.0419819,0.0581488,1.0765904,0.7338467,0.6928258,0.1695322,-0.5318381,0.3114600,1.3745883,-0.1722285,0.0120236
-0.3083349,-0.2739335,-0.6226366,0.1475995,-1.4270219,0.3526429,0.5742034,0.8717772,0.3228101,0.1977009,0.8919061,0.5047911,1.0020442,0.5795782,0.5333408,-0.2648425,-0.3761623,0.4687679,0.8195693,-0.2251640,-0.1599644
-0.3916993,-0.1205784,-0.6186658,-0.4859011,-1.5547169,0.2777510,1.1046942,0.6651655,-0.1599234,-0.7425022,1.0250120,-0.8701202,1.1910930,1.1194999,0.3484437,-0.4495565,-0.3855360,1.0027785,0.7769395,-0.1765095,-0.1555729
-0.1464473,-0.3739802,-0.7499705,-0.7864133,-2.1012125,0.5180081,1.1854409,0.4209650,0.1944834,-0.0613152,1.0145564,-0.6362972,1.2373229,1.3977174,0.4114111,-0.0680321,-0.3259870,1.3333104,0.4888527,0.3234421,-0.0470354
-0.0761630,-0.4813651,-1.1418638,-0.5412399,-2.8229978,0.5580544,0.8573985,0.2851080,0.7403643,0.0567198,0.9140669,0.2842322,1.1186582,0.8984034,0.2759294,-0.0397751,-0.2284241,1.2745996,0.6342621,0.2992446,0.0804570
-0.0407232,-0.7318709,-1.1988021,-0.4636100,-1.3561935,1.0737114,0.7169099,0.4906013,0.4444326,-0.3105491,0.9741343,-0.0101684,1.4316726,0.8203859,0.8302812,0.3349775,0.0429126,0.9253408,1.1199198,0.4432931,0.1894133
0.3241250,-0.1602732,-0.3475902,0.4588484,-0.9023802,1.6092674,0.9535171,0.8839826,0.8804496,0.5857571,1.5473800,-0.3689915,1.4557165,1.4398569,1.7329204,1.2367145,0.1665072,1.2126224,1.7146436,1.4858401,0.7143904
0.2637288,-0.1354622,0.3121511,0.4816518,-0.8539739,0.7661204,0.8295838,0.9510412,1.4732802,0.7875746,1.5000932,0.2118961,1.4478999,1.4785135,1.0379719,0.5121572,-0.2998801,1.0370396,1.3866059,1.3899904,0.2718523
0.1226082,-0.3008010,-0.3774439,0.0566347,-1.1989633,0.8696604,0.6907653,0.8396713,1.1333308,0.4605593,1.4634571,-0.1999791,1.1830571,0.9959877,1.0950917,0.1203877,-0.1056384,0.7669194,1.1933717,0.8755705,0.3231447
0.2932039,-0.2037461,-0.5272298,0.1352090,-0.8722130,0.8894599,0.7903098,0.8911093,0.5880677,-0.2085866,1.5861505,-0.1595327,1.1122956,0.6542009,1.4951236,0.2543173,0.4256961,1.0064318,1.3860896,0.7842972,0.5429957
0.0359148,-0.3342821,-1.2335283,0.3043850,-1.3659116,0.9027912,0.5699611,1.0037380,0.9945436,0.2872832,1.8939091,0.6101196,1.4128572,0.8824035,1.3015641,0.2039871,0.3634746,0.4896207,1.3043971,1.3838540,0.3218706
0.0678123,-0.2295162,-1.4705545,0.3116599,-1.5614905,0.4403563,0.3755127,0.7642494,0.9311980,0.3382874,1.7606128,1.0257415,1.2673792,0.4459282,1.0464338,0.3723407,0.3746481,0.8416732,1.2116131,0.6140837,0.3426997
-0.0586519,0.0857526,-0.6848642,0.2677888,-0.2179444,1.3993514,1.1876447,0.8238526,1.3097880,0.2358910,1.8161160,0.4896246,1.5160630,0.9309485,1.6836038,1.4467906,0.9650217,1.2550617,1.7044580,1.1142205,0.7970544
0.1299676,0.0736055,-0.3968442,0.2798837,-0.1225739,1.5775636,0.5244997,0.9729259,1.5033916,0.2333977,2.1661210,0.8532752,1.5253271,1.2535849,1.1855336,0.7738359,0.8817976,0.5656085,1.4214262,1.1930033,0.4567133
0.2600229,-0.0884132,-0.6816604,0.2026741,-1.1959630,0.9792446,0.6416979,0.7548307,0.5930380,0.2512645,1.7601180,0.9239073,1.3610815,0.6562197,1.0346950,0.2772535,0.3336471,0.4224370,1.1940023,1.1464099,0.3146614
0.5730482,0.2043243,-0.0104910,0.6212679,-0.6233541,1.4136214,1.2170573,0.8841374,1.1772686,0.0726482,1.6854004,0.5382075,1.4902294,0.7164226,1.5820264,0.9731778,0.6916400,0.4509818,1.6024934,0.8766004,0.4299717
0.6109980,0.1561192,0.1948483,0.8896580,-0.4042834,1.6103395,1.2194196,1.0017211,2.2008438,0.3168398,2.0057735,0.1135379,1.3063989,1.1637684,1.3870589,0.5991303,0.9322792,0.6281940,1.9064739,1.3677679,0.6472614
0.1499366,-0.0627990,-0.0852407,0.5102826,-1.2778628,1.3742424,1.1245852,0.8005731,1.4452727,0.0832622,1.9990543,0.7414892,1.4928137,1.1538604,1.2452193,0.6746685,1.1902922,0.8339722,1.7254760,1.2396759,0.9793327
0.4258654,0.0363092,-0.2457160,0.8160183,-0.7015467,1.8532914,1.1183233,0.8577380,1.2090403,-0.3579279,1.8530180,0.8138708,1.2838968,1.4268306,1.8513178,1.1138935,1.4178333,1.8270918,1.8453767,0.9947420,0.8630168
0.5775240,0.5451489,0.1095540,1.1718267,-0.5756556,2.1536987,1.6574315,1.3062230,1.9566090,0.1883818,2.1244726,-0.0440680,2.1043940,1.9299619,2.5058172,1.7894022,1.9323194,2.3574569,2.4569852,1.6554142,1.1259900
0.6433411,-0.1920064,-0.1398313,0.9516652,-0.7148370,1.2202765,1.4810216,1.7451472,2.7134798,0.8363385,2.1857200,0.9193949,2.3580427,2.6071765,2.6566756,1.8290032,1.6397098,2.4053378,2.7267926,2.1205180,1.3212928
0.1849262,-0.3081883,-0.3562328,0.9499819,-0.8239035,0.7483056,1.2243152,1.5039433,2.0846243,0.2402806,1.9310108,1.0753175,2.4480643,2.3828073,2.2564390,0.9018909,1.1544089,2.2416527,2.5615611,1.7646956,1.2942536
0.1928061,0.2611097,-0.2290817,1.0162375,-0.1876376,1.2313609,1.2462027,1.4277259,1.0214542,-0.2501508,1.5305029,0.0016915,1.9562901,2.3884058,2.5618665,0.4333361,0.8583805,1.9600664,2.8286297,1.6416603,1.0708740
0.1973378,0.5740725,-0.2650980,0.8996207,0.0075964,1.0909437,1.3909856,1.5588397,1.6236992,0.0991430,1.4439778,0.4612941,2.0912774,2.4421279,2.6856768,0.5926915,0.5858265,1.9425402,2.6062241,1.1716747,1.1891540
0.3445590,0.4644142,0.1341300,1.6562085,0.4020016,0.8825674,1.6342319,1.5141475,2.0862663,0.6565814,1.5065962,1.2189746,1.9285160,2.4981205,2.8179564,1.0232143,0.8564531,2.5786631,2.5168614,1.2793636,1.9387209
0.5388655,-0.0428386,0.0868643,1.3391906,-0.1424223,1.2602137,1.7274386,1.5988188,2.0875912,0.1437170,1.6126926,1.0634470,1.9188253,2.5596535,2.4090815,0.6623093,0.4212047,2.1281664,2.4394984,1.2333230,1.2285533
0.3193937,0.1024259,0.0464595,0.6525712,-0.6341486,1.0287344,1.1086980,1.5451472,2.2504032,0.0478121,1.4645259,-0.2788522,1.8364134,2.2040129,2.2424188,0.4178860,0.8045617,1.5675975,1.7377239,0.7855338,0.8794723
0.3475270,0.2537301,-0.4379653,0.8141245,-1.1553680,1.4623842,0.8447475,1.3653855,1.9304465,-0.2394241,1.3533220,1.0028807,1.8167499,1.7038208,2.0381560,0.7176046,0.5815698,1.6364368,1.7513392,0.7230438,1.0664351
0.2647941,0.4252572,-0.5431625,1.1061478,-0.8554990,1.0382093,1.0478541,1.5413420,1.5191560,-0.2908830,1.0108385,1.1171739,1.6219847,1.5795008,2.3414950,0.5721074,0.1930771,1.6503153,2.3482575,0.7507332,0.8147935
0.1163934,0.2878704,-0.7570690,0.4515904,-1.0478601,0.9439706,1.0069782,1.7048252,1.6650277,-0.2405894,1.1683370,-0.1549877,0.9100478,1.3627529,2.3090489,0.7675329,-0.3820647,1.1620382,2.0201662,0.5777396,0.4448918
-0.0259132,0.2474869,-0.5907511,0.1379231,-0.5296723,1.0219325,0.4014463,1.3723038,1.4320658,-0.2707135,1.1424387,0.3775025,0.7523317,0.7366948,1.4764940,0.5154637,-0.3929121,0.4687895,1.6266558,0.5552281,0.0284623
0.0308836,0.3367603,-0.2666340,0.0254969,-0.7909993,1.0415530,0.5467340,0.8845314,0.8253809,-0.9052845,1.3438603,0.6081861,0.7943404,0.9932331,0.8079237,-0.1515246,-0.7064896,0.3717883,1.3718101,0.0898481,0.0299978
0.3249860,-0.0475985,-0.5832840,0.4989770,-0.9723284,1.0358534,0.6338738,1.0622200,0.1929257,-1.0870680,1.3770814,-0.7217050,1.1930064,1.0435709,0.4969944,-0.1762777,-0.3990119,0.6364001,1.0657660,-0.5582147,-0.0565398
0.5614784,0.1698143,-0.4507373,0.6587668,0.2357348,1.4555808,0.7116913,1.0209421,-0.0035450,-0.7265695,1.7090998,-0.0697295,0.9789515,1.2205771,0.6137487,0.1311997,-0.0616192,0.8153172,1.0610821,-0.1156933,0.1006615
0.2186620,0.0934180,-0.2641339,0.5877178,-0.8015676,1.1405244,0.8279589,0.9057671,0.8718901,-0.2596366,1.7076920,0.7514884,1.2352687,1.6388004,0.8366475,-0.2404561,-0.6367846,0.8996105,0.8652036,-0.2903416,0.1517132
0.0352982,0.3934813,0.2797391,0.1987499,-1.2925247,1.1903439,1.0784960,1.0940288,0.5748855,-0.8028510,0.8373019,0.2784433,1.3185155,1.5967715,0.0295991,-0.3302576,-0.9449932,0.7881969,0.3438379,-1.1641612,-0.1394098
-0.0514329,0.7072662,0.0848168,0.3936687,-1.2922087,1.4309187,1.0270009,0.9803105,-0.0158333,-0.7560804,0.7705409,-0.6318721,1.2152631,1.2419471,-0.3316630,-0.8521721,-1.4909414,0.9301956,-0.1531978,-1.1280578,-0.3952766
-0.1758790,0.3513153,0.2143192,-0.1724751,-0.8441653,0.5517142,0.7347412,0.5897877,-0.3899752,-0.9384417,0.7300150,0.0714538,0.7181445,0.6245410,-0.4696642,-0.9393749,-1.7945639,0.3969805,-0.5211707,-1.2177179,-0.4560274
-0.3722458,-0.0536375,-0.2701647,-0.5987092,-1.6101805,0.1958796,0.4507889,0.4290647,-0.9254532,-1.7871320,0.5576824,-0.1363010,0.2663341,0.3994833,-0.5637770,-0.9264468,-1.6880169,0.4343457,-0.5978822,-1.8724166,-0.6351531
-0.5302339,0.6375359,0.0799065,-0.0975869,-1.4090501,1.2343141,0.5026343,0.4078681,-0.5549943,-1.8017327,0.5513065,-0.9113035,0.6913862,0.6857711,-0.3931836,-0.6280437,-1.1113192,0.7902675,-0.0905297,-1.6976373,-0.5804081
-0.5089017,0.4868260,-0.0065393,-0.3492382,-0.9916812,1.4813912,0.7730953,0.6014581,0.3022177,-1.1380105,0.9914196,-0.4978646,1.0008209,0.5109178,-0.6321273,-0.7217092,-0.7364700,-0.1715895,0.0537486,-1.2902442,-0.6155511
-0.5427210,0.1661863,0.1937926,-0.7116014,-1.4352112,1.0475763,0.5063587,0.3582202,0.2383768,-1.1776408,1.0622699,-0.1843319,0.6093107,0.5251492,-0.4507512,-0.2735497,-1.2588232,-0.3996322,-0.0102987,-1.6766611,-0.8231295
-0.7520282,0.4809845,-0.2309426,-0.2586572,-1.6049479,0.9836285,0.4235739,0.3913994,0.1289332,-1.1812611,1.3628330,-0.3058879,0.6342564,0.4551275,-0.1268530,-0.4026512,-0.5200483,0.0941781,0.4221996,-1.8044025,-1.0452539
-0.5652885,0.8171024,-0.1188601,-0.5792781,-0.3340053,1.9636610,0.6915219,0.3979854,0.3708726,-0.8386551,1.3338159,-0.3280617,0.7982561,1.1232190,-0.1718267,0.1496882,-0.8741537,0.2251609,0.3687884,-1.3687897,-1.0138443
-0.3939564,0.3856734,0.1507599,-0.3022836,-0.7949208,1.4298202,1.3468138,0.3202289,0.2969903,-0.8309103,0.7703448,0.5271661,0.8806716,1.3232810,0.2278689,0.2446428,-0.8413122,0.5255771,0.6788458,-1.1830797,-0.6147066
-0.2062480,0.5166824,0.1941178,0.0459860,-0.9838235,1.4086444,1.4143089,0.7972399,0.0840856,-0.1569451,1.1590534,0.1917858,1.6220268,1.7229503,0.4520527,0.2377360,-0.2717496,1.0612533,1.3099264,-1.1310065,0.0658479
-0.6019061,0.3586439,0.4168646,-0.0780038,-1.2306447,1.4698694,1.3416440,0.7695931,0.3042515,-0.1653812,1.5926831,0.3386785,1.2712911,1.6609939,0.4291925,0.1436912,-0.5431510,1.0310444,0.7878513,-0.6988132,-0.4002146
-0.7413155,-0.2746893,-0.1724935,-0.0952347,-1.6892616,0.7943874,0.9248061,0.5493420,0.3925218,-0.3044349,1.2700744,1.2909892,1.0798348,1.2601627,0.3146818,0.0562812,-1.1041027,0.9022951,0.7294140,-0.6415632,-0.1883820
-1.3805317,-0.9436017,-1.6278212,-0.5504866,-2.8330126,0.6714607,0.5229881,0.8381431,0.1458727,-0.5706654,1.3197153,0.9083301,1.1200150,0.5655087,0.0442039,-0.1127938,-0.2091764,0.9722843,1.2244045,-0.9993551,0.0735851
-0.6110569,0.1699946,-0.0815567,0.1761236,-1.0781587,2.3994229,1.8681928,0.6945326,0.2464693,-0.6861350,1.7361305,0.2709609,1.0571262,0.7787789,0.5681117,0.0476069,-0.3104412,0.7055073,1.2741871,-0.6370959,-0.6233754
0.0014227,0.2755924,0.5883542,0.1633861,-1.1986821,1.5313077,1.8011748,0.8254238,0.2412407,-0.4401092,1.4415892,0.9389041,1.3084364,1.5117010,0.2075098,-0.3833191,-0.2955993,0.2341459,0.2900660,-0.7321323,-0.8377373
-0.2029491,0.0230991,0.3043374,-0.4065684,-1.3513279,1.6277407,1.8706822,0.8055013,-0.0629576,-0.7694570,1.3786469,0.9996131,1.0826478,1.4880306,-0.1232615,-0.4336565,-0.3193364,1.2278433,0.5190555,-0.7574458,0.0905926
0.0181651,0.3194605,1.5872223,-0.2888625,-1.8718570,1.8818344,2.4267435,0.7693138,-0.4371149,-1.0098271,1.3033174,0.5323428,1.6414964,1.9851426,-0.2363392,-0.5965435,-0.5483528,1.1105973,0.7341735,-1.0996921,0.0627699
-0.6572953,-0.1307433,1.5912853,-0.8950194,-1.9202056,1.7073090,2.3178694,0.6215810,-0.7496487,-0.8764691,1.1278223,0.3199593,1.7321686,1.6305772,-0.6635709,-0.6596801,-0.6104355,0.6317182,0.2726065,-1.0039885,-0.5100188
-0.7116202,-0.0467049,1.1758541,-1.1059616,-2.4214923,1.7423226,2.1441467,0.5414635,-1.0012959,-1.0190256,1.2243345,1.0040852,1.4308378,1.4385792,-0.8702393,-0.3062765,-1.2662852,1.0937550,-0.3059908,-1.3079450,-0.5788592
-0.8590764,-0.1268334,0.9930213,-1.0185282,-2.2017326,0.8767791,1.5412176,0.5996601,-1.0355498,-1.1944056,1.1737140,0.5501950,1.1275887,1.0552250,-0.6646311,-0.2144509,-0.9818634,0.9313980,-0.1195983,-1.1694959,-0.7984578
-0.4781553,0.2589827,0.7636479,-0.7969139,-1.3163207,0.6885365,1.4618212,0.5667608,-1.2776896,-1.4122491,1.1162486,-0.1001879,0.9652583,1.0633368,-0.3668128,-0.5038471,-1.1596038,0.8374625,0.1916587,-1.1690484,-1.0427762
-0.6596003,0.0714540,0.4783525,-0.7696422,-1.1372098,1.4536721,1.2755014,0.4046538,-0.7921783,-0.5573158,0.7681477,0.3244810,1.1628883,1.0138520,-0.3899560,-0.6929861,-0.8983980,0.5917249,0.1963216,-1.1451132,-0.5994365
-0.8828704,0.2296820,0.9650923,-0.7971901,-1.9682121,0.6970608,1.4025786,0.3702540,-0.2315808,-0.7271962,0.6216725,0.3609014,1.3297290,0.9034222,-0.3002899,-0.8502777,-0.7428090,0.7005997,0.3969386,-1.4759820,-0.8552678
-0.7546958,0.3184656,0.8489175,-0.8705148,-1.6111654,1.2757831,1.4979411,0.6783916,-0.4280641,-1.2645251,0.5285434,-0.3056698,1.2530475,0.8826446,-0.4642489,-0.7952327,-0.5916385,0.3846202,0.6977541,-1.2935286,-0.8326443
-0.7449417,0.2803324,1.1817287,-0.9758771,-1.1202921,1.7906817,1.6072726,0.6311054,-0.5358328,-0.9025376,0.6159444,-0.5975076,1.4311999,0.4138401,-0.5821362,-0.6649692,-0.4753373,0.5383569,-0.0092742,-1.7575810,-1.0131327
-0.8462490,-0.1899952,0.7491307,-0.6836364,-1.1427004,1.5368768,1.7560368,0.7007975,-0.4178033,-0.4805587,1.0048369,-0.1756258,1.7614399,0.5731533,-0.5682849,-0.6567499,-0.4561019,0.7678837,0.1959337,-1.2164862,-0.9063575
-0.7977611,0.3472601,1.1763054,-0.4533888,-1.8522485,2.0235262,1.6401379,0.8852323,-0.4490451,-0.7196665,0.8142300,-0.9750011,1.7490244,0.8236331,-0.2439359,-0.7925183,-0.8680720,0.5480479,1.1745330,-1.2664361,-0.9018071
-0.7437078,0.5399935,1.3613106,-0.7699314,-1.1672219,1.4904522,1.4500641,0.6808064,-0.2356164,-0.8022415,0.7968991,-0.3663105,1.6140077,1.3204520,-0.2669088,-0.3637340,-0.3929172,0.7561356,1.1344917,-0.9804890,-0.7453263
-0.8536930,0.6190105,0.9901169,-0.9278721,-1.5374888,1.5913550,1.5058903,0.6630496,-0.8990512,-0.6652455,0.6987860,0.6625832,1.7545639,0.9496515,-0.4206971,-0.3129408,-0.5982062,0.7408988,0.9851271,-1.0448003,-0.5312342
-1.1305274,0.2915636,1.1569438,-1.2248832,-2.3598659,1.8072340,1.6757649,0.8363578,-0.9878227,-0.9773835,0.6987370,-0.4837147,1.3659743,0.8070468,-0.9205989,-0.6483405,-0.8193254,0.2639248,0.8925341,-0.9435988,-1.0196826
-1.2665335,0.4711860,1.7740232,-1.1362495,-2.1138010,1.8651687,1.8493799,0.8549051,-0.7162014,-0.8222157,0.7901571,-0.1106444,1.9375902,0.9588115,-0.6529469,-0.7753525,-0.3520442,0.4712332,0.8405352,-0.6568585,-0.3701231
-0.8850321,0.0192112,1.0223272,-1.0252485,-2.0811269,1.6405096,1.7397059,1.0729741,0.1019457,-1.0520651,0.9648840,1.2660452,1.9708023,1.3352081,-0.5751828,-0.7276533,0.1652909,1.1029142,1.0906039,-0.6260943,-0.2945490
-0.5977906,0.5160626,0.9629988,-0.7029787,-2.7325728,0.8817110,1.4146684,1.2093765,-0.1985334,-1.1634665,0.7402348,0.5419107,1.4180306,0.8772964,-0.4007996,-0.6375026,-0.3868853,0.7061793,0.8136953,-0.4306311,-0.5289537
-0.3315574,0.5743415,1.2249123,-0.8184563,-2.3554211,0.5514396,1.3684769,1.1075939,-0.4148063,-1.2684278,0.6790094,-0.1940320,1.3246659,0.3656655,-0.4964384,-0.3207719,-0.5042470,1.0290498,0.7184613,-0.9440558,-0.2682832
-0.5827999,-0.0383913,0.8646091,-1.1938424,-2.2848997,1.2281133,1.6145171,0.7736332,-0.3140202,-1.2128073,1.1792467,0.6717296,1.6507084,1.1470081,-0.0891979,-0.1821734,0.0816996,1.2827142,1.0349629,-0.2328352,0.1330158
-0.4921361,0.3390693,0.5006602,-0.7355087,-2.7370188,1.7433554,1.9221714,0.9957842,-0.0817197,-0.9154027,1.1568255,1.4764136,1.6330688,1.3758869,0.6753093,0.1525540,0.6608910,1.5776486,1.5247176,-0.1329397,0.3132194
-0.5761406,0.4558379,0.4733590,-0.5239673,-1.8998866,1.7381755,2.0527778,1.1536475,0.3289686,-0.5541056,1.3028489,0.4993545,1.3406472,1.0108584,0.3906880,0.2593165,0.3137240,1.2736608,1.6352141,0.2485048,0.2532840
-0.8955293,0.4394132,0.2711553,-0.7836641,-1.4575659,1.5587238,1.6670431,1.1814041,0.2350557,-1.0214906,1.0088971,0.3767408,1.1904429,0.9550520,-0.3934467,-0.1418864,-0.2951539,0.5585839,0.8616697,-0.3410654,-0.1191354
-1.2712377,0.1936830,0.1768256,-0.7359501,-2.1415269,1.7375774,1.7751458,1.0233732,0.0705624,-1.0837076,0.7773272,0.8220079,1.3854643,0.9668379,-0.1267881,-0.5550400,-0.5938587,0.3608261,0.9106100,-0.5476537,-0.1967373
-1.2255526,-0.0172477,0.4242220,-0.5886357,-2.6107788,0.8751637,1.3895596,1.0916874,0.1170494,-0.7874971,0.8910027,0.2754093,1.1704506,1.2999074,-0.2281501,-0.1256526,-0.0664921,0.4637378,1.3833275,-0.4948248,0.1991021
-0.8382734,-0.2457575,0.3060822,-0.4336264,-1.4274278,0.9259852,1.5806137,1.1575509,0.2335716,-0.9257168,1.3196670,-0.3153343,1.4638145,1.0804217,0.6815075,-0.1352477,-0.0159783,1.1878957,1.4923830,-0.2698670,0.1368994
-0.8534921,-0.7029815,0.5887691,-0.5742565,-1.6621397,1.0755239,1.8045937,1.2587264,-0.1692121,-0.4566436,1.5028145,0.7810347,1.4020174,1.2400490,0.1114054,0.1105394,0.0339404,0.8298345,1.2463471,-0.1938827,0.1366554
-0.8471165,-0.3283916,0.4120184,-0.7791535,-1.7589872,0.2929054,1.5010812,1.1867205,-0.5013280,-0.8077068,0.9326096,0.4719268,1.8684248,1.2456008,-0.4787491,-0.1684623,0.0347893,0.7437212,1.2224196,-0.4467061,-0.0432896
-0.8158967,0.1337616,0.6197292,-0.8485543,-1.7118273,1.1356350,1.8983674,1.3587035,-0.2685539,-0.6431214,1.0974469,-1.0406374,1.7171975,1.6121812,0.4164555,0.5314543,-0.0094648,1.0554085,1.4393032,-0.5203149,-0.1215741
-0.8260737,0.2933876,0.8620631,-0.7499050,-1.5765780,1.9953392,2.2383378,1.6146683,0.2842471,-0.4677551,1.1644102,-0.0483488,2.0306623,1.6655338,0.3435626,0.1003335,-0.0453473,1.1835032,0.9365701,-0.6633362,0.0204100
-0.7676701,0.2597300,0.7646189,-0.7626299,-1.7702807,1.0765692,2.2383728,1.4282622,-0.3022242,-0.4537059,1.1875709,0.3891048,1.8405006,1.6490293,0.6643410,-0.0975497,0.2882685,1.8849219,1.0146881,-0.6994926,-0.4022420
-0.6692989,0.6400849,0.8441737,-0.5145825,-1.2615194,2.1346521,2.4790950,1.2765268,-0.1652812,-0.8329416,1.0445637,0.2691268,2.0161221,1.5383357,1.1689700,0.2500515,0.7153429,2.3920169,1.7642978,0.0967638,0.1300998
-0.7716202,0.5273786,0.7964808,-0.5429837,-1.1845728,2.5504086,2.2899945,1.5698918,0.1397973,-0.2524035,1.3389281,0.4979177,2.1596560,2.0928898,0.7340829,0.8276608,0.5538231,1.7595727,1.5124230,0.3162944,0.4023708
-1.0372555,0.1701030,0.4883049,-1.0743589,-1.4014317,1.6129645,1.7447830,1.2962097,0.1674379,-0.0756065,1.3199977,0.9892356,1.9214963,1.6951423,0.5521573,0.4312525,0.0739752,1.0919292,1.1987320,0.0898414,0.0866104
-0.6041992,0.1435398,0.4046904,-0.0015469,-1.3075868,1.3851825,1.9526523,1.4037808,-0.1032198,-0.1723634,0.9679576,0.8101313,2.2442155,1.4324054,0.7847311,0.0495300,0.2243355,1.4886777,1.5261208,0.0672196,0.2923391
-0.4722611,0.5531082,0.6869433,-0.1244668,-1.7365510,1.6110764,2.3782887,1.7718790,0.6100658,-0.3949692,1.1034496,0.2279151,2.0766542,1.6835629,1.2075614,0.7059861,0.2299412,1.5824851,1.8291216,0.1214775,-0.0245040
-0.9650981,0.1572476,0.8273188,-0.4139223,-1.0079716,2.3440454,2.1581004,1.7962389,0.0894222,-0.2100406,0.9656841,1.2101977,2.1611116,1.6302098,0.6248719,0.5430069,-0.2324525,1.6669735,1.2815143,0.2072379,0.2774639
-0.6649820,0.2852702,0.5286429,0.1936540,-1.4605821,2.5288956,2.2347128,1.5648839,0.0439955,-0.4364989,1.0564083,0.8327315,1.8274002,1.2755048,0.7253725,0.3296179,0.4083420,1.2921988,1.0325067,-0.0671509,0.3892920
-0.2977979,0.4728342,1.1380094,-0.0688789,-1.3920362,2.3708067,2.4387462,1.6542777,0.3888283,-0.4660476,1.1378555,-0.2124995,1.6475817,1.1330597,0.9768639,0.3331706,0.4953927,1.3881590,1.5735750,0.1106502,0.1322770
-0.5055371,0.3293224,1.1419638,-0.5751212,-2.1174550,2.0691197,2.3302522,1.6095943,-0.0736378,-0.4354130,0.8907303,0.6280221,1.5814152,0.9122674,0.3120217,-0.4902752,0.0498395,1.1180959,1.0798146,-0.1181472,0.1928459
-0.6416694,0.1135935,1.0739628,-0.4696416,-1.6267132,1.3497303,2.2752078,1.3701073,-1.0701478,-0.8391026,0.3351355,0.8514030,1.2139840,0.9005987,-0.0622960,-0.3180521,0.0972104,1.2197034,1.0140541,-0.4193580,0.3113602
-0.4218866,-0.0352481,1.1227790,-0.0805390,-1.8998353,1.7299986,1.9343959,1.6331209,-0.5674385,-0.4521644,0.6566520,-0.4609157,1.2237073,1.0684874,0.0085522,0.2768736,0.4501915,1.4130132,0.8640463,0.0715300,0.4054686
-0.4242066,0.2603652,0.7619191,-0.4806455,-2.3452778,1.6747860,2.1802289,1.5729381,-0.3241729,-0.1283603,1.0313182,-0.5394994,1.5330868,1.2810215,0.1100123,0.0766877,-0.0149712,0.9658090,0.6983050,-0.0016383,0.1044468
-0.6383960,0.5347392,1.2051066,-0.8082976,-1.8469445,1.5881907,1.8539302,1.5074753,-0.5556792,-0.3021041,0.8936499,0.3372112,1.3883455,1.2277184,0.7911403,-0.2313694,0.0928887,1.3399775,0.7013449,-0.3483962,0.0444637
-0.2668115,1.0856665,1.2832453,0.4028393,-1.1696453,1.1865066,1.7705166,1.8922672,0.3157937,-0.4916662,1.0120368,-0.0427200,1.5374264,1.3094295,0.5510317,0.2298484,0.1494804,1.6233532,1.0685725,0.2048600,0.1121442
-0.2450964,1.0176647,0.4360042,0.3417287,-1.2812098,2.0608311,2.0528884,1.9039391,0.3419244,-0.0389064,0.9230388,-0.5830801,1.2998022,1.2454772,0.6331915,0.3222661,0.5088027,1.6632388,1.3627794,0.3875787,0.2865945
-0.2038389,0.0235195,0.8128424,0.0164980,-1.9083934,1.4219668,1.9755495,1.6516230,-0.6740085,-0.1691973,0.8340156,0.2541997,1.2051884,1.5555732,0.6305116,-0.4057100,0.4452792,1.6968358,1.3240076,0.0109966,0.7410311
-0.5110815,-0.2384790,0.1371192,-0.2897738,-1.2374601,1.2467046,1.8691667,1.7543781,-0.6191263,0.0613992,0.4520479,-0.2069418,1.7243242,1.7216934,-0.0768805,-0.7815907,0.1564503,1.5565124,1.1473289,-0.0085890,0.2653803
-0.5402157,0.3042314,0.1687935,-0.3833626,-1.9359175,1.8042532,2.2364709,1.9583472,-0.9855817,-0.2229191,0.6752580,-1.3531179,1.5254865,1.4591111,-0.1676121,-0.3291297,0.4653321,1.2213037,1.0573111,0.2194754,0.5804948
-0.6675867,-0.3480015,0.2181327,-0.7504640,-1.3011372,1.5871084,1.9806596,1.8804744,-0.1385633,-0.1596152,0.6872579,-0.1084093,1.3300781,1.5593373,0.2323336,0.2512645,0.6542941,1.8458261,1.5251384,0.7989933,0.7200849
-0.6100891,0.1976472,0.1426249,-0.0080114,-0.9903897,1.4876115,1.9088416,1.6180305,0.1439801,-0.4589615,0.8852027,0.5997965,1.6008308,1.6616699,0.5762528,-0.2869265,0.0769437,1.5564846,1.6191168,0.5571246,0.6301489
-0.1514914,1.2877802,0.5795137,0.0304109,-1.1614238,0.9547375,1.8702335,1.8087063,0.1616235,-0.7764368,0.5703524,-0.3656465,1.5591096,1.6019344,0.4491851,-0.2890913,-0.1131246,1.5085999,1.6345105,-0.2104050,0.5732435
0.0431669,1.0786877,0.7621080,-0.0567762,-0.5898775,2.1834135,1.9427959,1.9706486,0.6422805,0.0425275,0.4723766,-0.5218821,1.6827077,1.6361513,0.9747927,0.4807744,0.5506135,1.7527497,1.5723665,0.4852852,0.6760265
-0.0969591,0.4346826,0.7528282,0.5216148,-0.4643316,1.5835319,2.7558296,2.0828784,1.8224853,0.7044596,0.4525476,0.9056239,2.3915691,2.1258781,1.6062257,0.7903243,0.8168119,1.8811038,2.0570633,0.8505939,1.2872835
-0.2915647,0.0136705,1.3769072,0.1371006,-0.1185207,1.4224517,2.6825237,2.3096075,1.4164896,0.3622508,0.6007702,0.9696217,2.2273688,2.5108855,1.1124556,0.4501439,1.4312660,2.3608756,2.2360699,0.8633105,1.2592562
0.0414246,0.5338021,0.7657803,-0.2524250,0.4574877,2.0869713,2.5798531,2.4616208,1.2435243,0.3737178,0.7411193,0.4109759,2.1589763,2.4494717,1.0871941,1.0906221,1.5227259,2.0152497,2.3717523,1.3536636,1.1414670
-0.2392550,0.3175342,0.7708179,-0.0749079,-0.0934926,1.6419350,2.5268342,2.2722681,1.9862081,0.6857207,1.0229656,1.3169109,2.2061877,2.1228988,0.9187223,1.3448752,0.8484314,1.4861236,2.3359139,1.1252488,0.8140090
-0.2961287,0.4908743,0.7373234,0.0979797,-1.5217484,1.0391449,2.3933923,2.1552887,0.9591735,0.5603076,1.1842862,1.0806489,1.9667062,2.4424419,1.2676433,0.6790397,1.2594334,2.0942647,1.8108946,1.2950405,0.9212937
-0.0120497,0.8745642,1.1130515,0.0518945,-0.9252679,1.5784304,2.4142249,2.1247218,-0.3087804,-0.1768162,1.0821444,0.7311190,2.1422691,2.4025509,0.8811933,0.5786905,1.4960860,2.0277386,2.0608718,1.4811378,0.4052387
0.0224118,0.6538625,1.0999495,-0.0420493,-0.5489016,1.3870846,2.2785568,1.9193516,0.2000577,0.2092205,1.0065804,0.7421392,1.9034313,2.2965875,0.1902827,0.5006350,0.5750059,1.8839128,1.4839832,1.0998187,0.3935993
-0.3757584,0.2444147,0.5749810,-0.4772707,-1.6202710,1.0756468,2.1856287,1.8002316,0.4100050,-0.0990232,1.0193640,0.8980504,1.5417113,1.8116876,0.4755539,-0.1279523,0.3472362,1.4604180,1.5964602,0.7913089,0.1881025
-0.0753871,0.5970237,0.8759903,-0.4023980,-1.3942600,1.2184668,1.7778925,1.8643020,0.1664231,-0.3549400,1.1476841,-0.4708677,1.4355437,1.9827958,0.5704767,-0.3785768,1.0338595,1.6471962,1.6436758,0.5698441,0.3006500
-0.2281963,0.4220691,1.0790026,-0.3346613,-1.7191136,0.9462815,2.1502583,1.7488075,-0.1151713,-0.1632337,0.8458813,0.0222866,1.8447138,2.3057256,0.3737196,0.1438902,0.7748997,1.9712912,1.3226484,0.5096064,0.8118883
-0.4331108,0.1670753,1.0615656,-0.1839679,-1.1250229,1.4088802,2.1721425,1.7916830,-0.0991921,0.0021120,0.5072968,0.8820168,1.8825768,2.0286567,-0.0228191,0.2508419,-0.0967246,1.7940016,1.2499163,0.2197857,0.3443176
-0.4294136,0.4213421,0.8063910,0.0111220,-1.8007187,0.7799205,1.7678512,1.8533851,-0.2005304,-0.0229062,0.5674912,-0.2569408,1.4256123,1.4428414,0.6196157,0.2709004,-0.3586009,1.6848768,1.1831723,-0.0159979,-0.3722994
0.0888442,0.3531695,0.4633906,0.2618703,-0.3912514,0.7522954,1.9452025,1.9904453,0.2003590,-0.0901065,0.8438996,-0.6881714,1.2262502,1.6225083,1.2943161,-0.0553867,0.1118035,1.5137171,1.4221070,0.1689717,0.2209132
-0.0732301,0.2582048,0.1412008,0.5404478,-0.7225823,0.8985161,2.0248060,1.9000000,0.8186248,0.9072138,1.0583515,-0.0738997,1.5651414,1.9597147,1.1417372,0.6520646,0.3648222,1.8420957,1.7111900,0.6443049,0.3403690
-0.1236314,0.4688855,0.3477012,0.4960821,-0.8968046,0.1896390,1.4922713,2.2396786,1.1655533,0.9037689,0.8887411,0.1546731,1.0515801,1.8361292,0.9959174,0.3523167,0.5542328,1.6323603,1.4796530,0.4532280,0.0987387
0.1521914,0.7467389,0.8385240,-0.0349759,-0.2486192,0.5786203,1.8112166,2.3832066,0.7176825,0.0775866,0.8577961,-0.8154447,1.4777167,1.7935426,1.1216851,0.4915112,0.3005261,1.5723256,1.2808396,0.2747357,0.3834973
0.3205253,0.8804420,1.1606023,0.3709453,0.1160070,0.5051258,2.3289762,2.2715855,1.0253096,0.0150741,0.7386557,-0.1544540,1.8130726,2.1844165,1.4229028,0.2654066,1.0054872,2.0748279,1.4301445,0.3789632,0.9779002
0.6922897,0.5560125,0.9055737,0.6546122,-0.5972365,0.9680339,2.3379569,2.1825757,1.2380375,0.2629775,0.7258266,0.9212569,1.5384246,2.4684484,0.9899880,0.2843547,0.8738182,2.1182780,1.2256932,0.7723449,0.7312651
0.5164867,0.6331738,0.8913133,0.2345639,-0.5369723,0.9948795,2.7777622,2.0711761,1.0534217,0.6255482,0.7564286,0.4124116,1.6425263,2.5153205,0.8800135,-0.0200802,0.9067155,2.0320377,1.3724669,0.8490999,0.6833251
0.5626482,1.1654955,1.2930219,0.5647244,-0.2947410,1.0541378,2.2478206,2.2003124,0.5758185,0.6647762,0.9415126,0.1225795,1.6933825,2.6773410,1.1111588,0.2856504,1.1177109,2.3393402,1.5007942,0.9312725,1.0244105
0.4024715,0.6753823,1.1063974,0.5301135,-1.2088670,1.7490475,2.2656553,1.9300369,1.0408559,0.5964640,0.8130677,1.4423138,1.8541393,2.6596305,1.7432351,0.9814529,0.6006194,1.7933221,2.2341053,1.1703691,1.2676820
0.4030761,0.2426114,0.6349018,0.9495113,-0.8628229,0.9990965,2.0217013,2.2573476,1.4433206,0.1988823,0.8162115,0.8563707,1.4564936,2.2447658,1.6960315,1.1301652,0.7213376,1.5657363,2.4220707,1.2427193,0.8322715
0.7946255,0.3199233,0.0598897,1.2630917,0.2482873,0.6468518,1.6184628,2.6336908,2.0753427,0.5563493,0.8981815,-0.3346263,1.4498415,1.9171631,2.1483192,1.3727705,1.0495217,1.6382915,2.4666586,0.9569134,0.8553481
0.4848326,-0.1679505,-0.0410318,0.6594713,-0.2926998,0.3960941,1.1333563,2.2435296,1.6056943,0.8573006,0.9690229,0.4988822,1.3700174,1.8368059,1.6828363,1.4022403,1.2304018,1.5237486,2.4068933,1.2381486,0.4416544
0.4988421,0.1627749,0.1347933,0.4319615,-1.4527375,1.3831247,1.5690762,1.9604088,0.9545660,0.3263112,0.8640652,0.5416550,1.2693948,1.8598310,1.1208282,0.8327804,0.7979599,1.8452104,2.1454604,0.9663970,0.6091852
-0.0062104,0.4233607,0.4948031,-0.1549160,-0.9208038,1.3322902,1.6696668,1.8412138,0.0964335,0.3860262,1.1139958,-0.5024477,1.6277268,2.3734233,0.7389246,0.7206047,0.6142598,1.6035002,1.6639217,0.6265781,0.5574223
-0.0953062,0.1141169,0.5764596,-0.4508222,-0.3830787,0.9045429,1.2482209,1.5599800,-0.0826391,0.1871131,1.1015186,-0.4839131,1.4439842,1.5907208,0.0822810,0.5433966,0.0727133,1.0097637,0.8203783,-0.1517235,-0.0276279
0.0328121,-0.0549585,0.6085801,-0.2044943,-1.0503956,0.3637570,1.1881568,1.6055449,-0.0178457,0.3029613,0.7821628,-0.0902668,0.9224523,1.1763345,0.2319597,0.1169990,-0.8168786,0.6375470,1.1565945,-0.7377419,-0.2028817
0.1078446,0.4724977,-0.1293281,-0.0851180,-1.1211598,0.2848278,1.4146537,1.8567479,0.0275916,0.4310363,0.6606112,-0.7615754,0.6324152,1.2472137,0.0247192,0.6525950,-0.2113280,0.7043230,1.2843612,-0.5141913,-0.2786186
0.0582034,0.6400381,-0.2988494,-0.0973672,-0.6809629,0.4685866,1.2870544,1.7519338,0.6929497,0.7906964,1.0500622,-0.6110814,0.8245676,1.4108893,0.2539867,0.7856890,0.6705499,0.9293849,1.5631264,0.2569157,0.0803885
0.1957571,0.0191575,-0.2103605,0.2661658,0.4302177,0.7373055,1.8245739,1.5956290,1.2222323,1.1746999,1.0930969,0.3266210,1.3512015,1.5771545,0.6831805,0.8787421,1.1998376,1.0654116,1.3200710,0.3997014,-0.0020846
0.3521067,0.0438871,0.2491529,0.7773885,0.7211694,0.6481079,2.2133839,1.7348466,1.5054879,1.1256113,1.2667131,-0.0892891,1.2160168,1.6770134,1.0607135,0.9392021,0.6284543,1.4203901,1.5311577,0.6838961,0.0121776
0.6503501,0.2549956,0.0166062,1.0005318,-0.2440598,1.4201825,2.0461266,2.0067756,1.3891380,1.4035078,1.1538546,-0.7235654,1.0802875,1.6407877,1.3816462,0.6830910,1.0872911,1.0163034,1.8615966,0.6329914,-0.1466518
0.1573175,0.1615954,-0.0104510,0.5969430,-0.2804937,1.5038717,1.9081986,2.0291741,1.6364008,1.4126204,0.7784279,0.0060780,1.4129043,1.8597044,0.5681958,0.9884205,0.8416983,1.0312853,1.6532331,-0.0190805,-0.2545089
0.1197558,-0.0983755,-0.1231843,0.3040887,-1.1612927,1.1487963,1.8713597,1.8167982,1.1853391,0.5285384,0.3362713,0.7845108,1.2522774,1.5762833,1.0150862,0.7071752,0.8703818,0.9808645,1.5816374,-0.0206954,-0.1189404
0.2069758,0.5202828,-0.1304476,0.3689099,-0.0507294,1.0079658,1.4418114,1.8615891,0.7705168,0.5229648,0.5536190,-0.8457300,1.1561114,1.3996376,1.4685019,0.7773322,1.1907357,0.9430292,1.9659934,0.3261907,-0.2735299
0.0108213,0.9819134,-0.2811136,0.2983612,0.4098987,1.1014314,1.1356653,1.7924424,0.8252843,0.4527286,1.2235640,-0.1839102,1.1155456,1.0875655,0.9945380,1.5106533,0.8738050,0.8951524,1.7192748,0.7771069,-0.0025172
-0.0577981,0.2940585,-0.4741733,0.4746934,0.3604253,-0.0098327,0.9843051,1.9265009,0.9619879,0.6687715,0.7982732,0.4771235,1.2692057,1.3624891,1.1675206,1.8601000,0.5906954,1.0496271,1.7089411,0.8425878,0.3388726
-0.1165588,0.5613567,-0.6878967,0.3028118,-0.0614784,0.5918846,1.3424722,2.1207502,0.6638345,0.5505860,0.7980055,-0.1693095,0.9155679,1.1218666,1.3533684,1.1862284,1.0286129,1.1650618,1.7653258,0.5097583,0.2404478
0.0290359,0.4918130,-0.3530849,0.3080273,0.0454234,0.8420080,1.6071340,1.8196281,0.3940449,0.6742198,1.1397109,0.4737649,0.7271354,1.4494810,1.6049401,1.3672500,1.4872282,1.0978307,1.9623147,1.0876900,0.5575477
0.0734916,0.2519653,0.0375760,0.4171929,-0.4711121,0.9611016,1.7818575,1.5121378,0.7114158,0.9396591,1.1136810,1.5358061,1.3181846,1.7529176,1.3935133,1.0660422,0.7260727,1.1599386,1.5745711,0.7549537,0.4995087
0.3075706,0.2202958,0.1574332,0.4917960,-0.4039980,1.5775414,2.1585886,1.5621659,0.5611641,1.3684320,0.9060478,0.5134868,1.4671539,1.9587713,1.8352289,1.0525173,0.8814546,1.9027900,1.8964421,1.1263907,0.8926123
0.4254807,1.1249359,0.2707352,0.6914256,0.3771186,1.9341451,2.0615735,1.8924496,1.1679834,1.1394683,0.9631007,0.0999323,1.4573696,2.3179348,1.9533361,0.9233177,1.3529932,2.0246096,2.2492194,1.0774033,0.9856765
0.3047949,0.7106590,0.2444828,0.2912010,-0.3407928,1.3346087,2.1403897,1.9383196,0.9644848,1.3665613,0.7899761,0.7804871,1.5134913,2.0509255,1.7055231,0.9979811,0.6849321,1.1402156,2.0896702,0.6701978,0.3769603
0.1170461,0.4317677,-0.5231460,0.2682272,-0.0081143,0.7458493,1.5510364,1.6407830,0.3620339,0.4865341,0.4242864,0.2207442,1.0379698,1.4315573,0.8063271,0.6481898,-0.0345070,0.4071622,0.9492254,0.1774203,-0.2149784
-0.0080669,0.2467633,-0.6099448,0.2908729,-0.2143085,0.7258497,1.3391482,1.6731349,0.2395015,-0.0783029,0.7283410,-0.5991827,0.8318530,1.0040213,0.8013563,-0.0879972,-0.7394066,0.5203593,0.8477141,-0.1439765,-0.1959422
-0.1092447,-0.4105470,-0.7355868,0.2823519,0.5451440,0.5071439,1.6125839,2.0258765,0.9004230,0.2177618,0.8831634,-0.4091747,1.1141883,1.0154655,1.7116002,0.0792469,-0.5357319,0.3780692,1.2003826,-0.1996282,0.0626920
-0.1490654,-0.0571140,-0.1750925,0.9779910,1.3745661,0.6049188,1.9284238,2.1200862,1.4297842,0.5666929,0.9420684,0.9289179,1.0558646,1.5634557,1.4859080,0.1953330,0.2726555,0.6393690,1.2253553,-0.0888069,0.3023803
0.5689050,0.7280821,-0.2968953,1.3022277,0.1624050,0.3321701,1.9744296,2.0342541,1.4084909,1.0119601,0.6583050,-0.1156006,1.0456494,1.8403429,1.8162639,0.4690059,0.4344685,0.9524780,1.3982788,-0.0445428,-0.1689515
0.6676817,0.5540550,0.0839804,0.6246883,0.8012369,1.3680303,1.7494159,2.0319188,1.5299661,0.7757697,0.9448645,-0.2122215,1.2551379,2.1747177,1.8535742,0.1583489,0.3636963,0.9145318,1.1303403,0.1969121,-0.3204181
0.6857240,0.4528046,0.1540753,0.7822887,0.6172617,1.2893704,2.1043072,1.9719763,0.8712519,0.5197904,0.5289412,0.6321049,0.8791319,2.2907639,1.3753561,-0.4283547,0.1089787,0.8882982,1.1993915,-0.3744340,-0.0566566
0.6706203,0.6787655,0.4223425,1.0262098,0.2166151,0.7390044,2.3211403,1.8606632,0.6136011,0.4002141,0.0664260,-0.7242613,1.3583534,2.1973219,1.2067449,0.2944243,-0.0750349,1.3791438,1.2748953,-0.1084152,-0.1770595
0.5847164,0.5952633,0.6277986,1.0337644,0.5446259,1.8330637,2.3807471,1.6935592,0.8155609,0.3136206,0.0397207,-1.0406379,1.5568184,2.1427968,1.4814805,0.4548511,0.1574436,1.5255225,1.5601681,0.0470739,0.1560271
0.8326695,0.6472839,0.8873130,0.7914973,0.1291066,1.8838503,2.6227882,1.8354027,0.9821686,0.2128664,0.3032942,0.3346121,1.2680348,2.2521849,1.0959060,-0.2537195,0.8093466,1.6242386,1.2887554,0.1554045,0.1562924
0.6417763,0.8091281,0.9256581,0.4942409,0.1282233,0.5128486,2.4815671,1.6433098,0.4366862,0.4522022,0.5130997,0.5029033,1.4453028,2.4282751,0.7816335,-0.1866176,0.2611022,1.4672842,0.8853267,0.4564878,-0.0793209
0.4335224,0.9519605,0.2818793,0.1542032,0.3206269,0.4426660,1.8878016,1.6142387,0.4455247,0.3612357,0.6964941,-0.8592783,1.1613547,1.7836132,1.2956890,0.3999140,0.5839309,0.9643642,1.5620570,0.2891350,0.1503009
0.2583024,0.6109264,0.3823128,-0.2278721,0.4365884,0.5071333,1.7103299,1.8926460,1.1081733,0.6661336,0.6006783,-0.1661210,1.1633841,1.6063443,1.1610261,0.8751653,1.0476019,0.6970113,1.4987361,0.6340005,0.0267561
0.3817271,0.1474598,-0.0323427,-0.3935725,0.9580379,1.0873948,1.7535956,1.6147357,0.8113100,0.7892784,0.8104065,0.8557742,1.6916220,1.9654994,0.1804588,0.6444947,0.9441202,1.4420128,1.1100844,0.3287727,-0.0229928
0.3811708,-0.0001886,-0.5110002,0.0993330,0.9402946,0.5391879,1.6912898,1.3494859,0.0562713,0.2808156,0.8149748,0.5618548,1.5200248,1.7392992,0.4494618,-0.2322147,0.4131176,1.1505942,0.9340860,0.0516123,0.2227499
0.4969108,0.0109642,0.3185284,0.0243872,1.1923493,0.7841250,1.8344735,1.5970681,0.1012510,0.4784477,0.6772270,0.5058573,1.5852523,1.4080579,0.1112857,-0.1679919,0.8604130,1.1244627,0.5989752,-0.0819875,0.0353310
0.4906118,0.0803487,0.6560343,0.4901734,1.0454702,0.6293831,1.8715073,1.4757818,0.0146144,0.3975504,0.6210938,1.0701375,1.4017100,1.7428107,0.0822908,-0.1519357,0.4323274,1.1480565,0.4583494,-0.3127582,0.1709244
0.5755875,0.1707848,0.0630368,0.6369069,0.6925542,0.3463855,1.7093039,1.2712650,-0.3580697,0.2700875,0.5190274,0.3354534,0.8871466,1.7102566,-0.1994947,-0.5324913,0.2925246,1.3647506,0.7498825,-1.0812500,-0.2249810
0.0927477,0.0464823,-0.1942696,-0.2168652,0.7648821,0.9641290,1.3583636,1.1268785,-0.2964915,0.2674082,0.7241522,-0.1318921,0.8894524,1.8562435,-0.3291412,-0.0785951,1.0011129,0.7695007,0.2733738,-0.5368084,-0.4378209
0.1088627,0.3702661,0.1922391,-0.1212644,0.7555054,0.7676218,1.5082954,1.1127402,0.0800280,0.5759462,0.6660433,1.0722920,0.9076701,1.6122739,0.3953604,0.5819795,1.0696282,0.4208961,0.2909003,-0.2686946,-0.3105659
0.1508112,0.2207223,-0.6547835,0.1778084,0.5160940,-0.0294874,1.4087300,1.5091892,0.3924423,0.5546201,0.8013461,0.9364499,0.8738480,1.3794045,0.4662955,1.1034766,0.6872497,0.6038296,0.5624219,0.2418346,-0.3220199
0.2999387,0.3874611,-0.7557511,0.4427018,0.3738748,0.4515217,1.2801979,1.7090027,1.0858498,0.5609217,1.0494440,-0.1660236,0.4002771,0.9948202,0.6388068,0.8452535,0.7360024,0.2245356,0.5466015,-0.0422356,-0.2964865
0.5156912,0.2480456,-0.3638171,0.4951106,0.6198063,1.0035151,1.4701623,1.7722650,0.8913476,0.9441926,1.0682869,0.2569568,0.9364276,1.3326603,0.9506904,0.9339018,1.0386618,0.9270858,1.1852155,0.1175606,0.1021107
0.4984659,0.4764657,0.2931567,0.4226546,1.1607674,1.4172657,1.8761451,1.6417949,1.1565601,0.8599005,1.0726923,0.7944033,1.4458367,2.2797637,1.4247494,1.0735701,0.8167909,1.4395626,1.3799361,0.5220745,0.1441309
0.5364540,1.0323106,0.6124755,0.7542155,0.9656727,1.4670200,1.8095177,1.6873469,1.2789586,0.9990482,1.2252109,0.2757939,1.5370293,2.0926852,1.6577708,1.0637804,1.4673448,1.4020711,1.5887508,0.9990311,0.1416412
0.7684617,0.9823784,0.8030689,0.6645285,0.9954883,1.1442244,1.9591693,1.9190083,1.4179869,0.7299749,1.0417154,0.1295607,1.5258118,1.7442755,1.1463593,1.0501879,0.7944618,0.9674010,1.4555228,0.9605988,0.2100049
1.0775717,0.3307435,0.5331389,0.3884596,0.4884394,0.9398279,1.8369428,1.7727582,1.8288912,1.1767118,0.5244179,0.7950293,0.9966379,1.7486455,0.5763786,0.7502612,1.0968602,1.0527821,1.2046936,0.6514518,-0.0331601
0.6803870,1.0779895,0.0492235,0.4820091,0.2995765,0.4337347,1.6246033,1.5034438,1.0035661,0.7651653,0.9270582,-0.5478284,0.8998764,1.5931712,0.0824223,0.4016069,1.0505544,0.8254684,0.3620368,0.2232876,-0.5473221
0.6122382,0.9015044,0.5858155,0.1109180,0.2575714,0.7521200,1.5256040,1.3247890,0.1798058,0.6212485,0.6871049,-0.9322420,0.8933825,1.4820427,0.3182785,0.3443881,0.7356333,0.4508742,0.4711863,0.1946878,-0.2749995
0.3923483,0.8838943,1.0177755,0.1111390,0.6047189,1.0081345,1.5747789,1.1247877,0.2768464,0.5934780,0.8883004,0.7197319,1.2157663,1.3764192,0.3677894,0.4331134,0.7854502,0.4296919,0.6563485,0.3331348,-0.1744145
0.6179202,0.7669453,0.3438726,0.2436225,0.5211051,0.4014038,1.7223992,1.3966994,0.4484543,0.8187051,0.6148968,0.9946316,1.1475155,1.3289820,0.1154088,-0.0987571,0.4370983,0.5527687,0.7035681,-0.0090232,-0.5164287
0.8913395,0.9696034,0.3970735,0.1793296,0.3162307,0.8846985,1.6510956,1.4933293,0.2705234,0.5514426,0.3921673,-0.5706583,0.9518526,1.1178490,0.2188305,-0.3799091,-0.0965639,0.1497043,0.7102714,-0.2913184,-0.8824418
0.6196013,1.0785316,0.7806931,0.2152894,-0.4054493,0.8912259,1.3740236,1.3316940,0.6638821,0.2874687,0.3124523,-0.2142489,1.1663851,1.1034102,-0.0223264,-0.6817343,-0.0286125,-0.0293987,0.0923357,-0.3365991,-0.8900445
0.5982012,1.2945319,0.1871156,-0.1246599,-1.3564947,0.2671928,1.1326675,1.3502270,0.5040106,0.0316129,0.1079904,0.8909504,0.8611814,0.8796183,-0.2369869,-0.5623514,-0.2939552,0.5785040,-0.4345747,-1.0603795,-0.9306477
0.4176116,1.0976390,0.2268251,-0.3503824,-0.2941725,-0.2569603,0.8057472,1.5218560,0.1579342,-0.2031315,0.1540514,0.0190536,0.6277968,0.7059628,-0.8850414,-0.8185645,-0.8265113,0.4568833,-0.7933762,-1.2164161,-1.5574303
0.2042920,0.7366366,0.2399915,-1.1215401,0.1724339,0.7355101,0.9014587,1.0282876,-0.4576035,-0.0412212,0.2768380,-0.2143030,0.4467796,0.6080564,-1.4810755,-1.3724403,-0.4839286,-0.4619657,-1.0570517,-1.7522465,-1.8512669
0.0133991,0.3356408,-0.2009961,-1.1850727,-1.2564890,0.6582157,0.7015499,0.5124110,-1.3078216,-1.0288308,0.2461862,0.4742672,-0.0468798,-0.0324843,-1.5691804,-1.5669342,-1.0701100,-0.7913771,-1.3855517,-2.2151577,-2.4055934
0.1985821,0.6223158,0.3529375,-0.3869610,-0.9157195,0.5130585,0.8772097,0.7214455,-1.5969974,-0.4193352,-0.1169699,-0.4570667,0.3344622,0.1383750,-2.2434516,-1.1788349,-0.4108126,-0.5784600,-1.6971686,-2.1996305,-2.1558816
-0.0074672,0.5176168,0.4232481,-0.7717796,-0.3584610,0.7394128,0.5964236,0.9544439,-0.7309036,0.2148169,0.0872750,-0.8099238,0.2606187,0.1313621,-1.4440832,-1.1785764,-0.1891121,-0.4914214,-1.5333545,-1.3372502,-1.8341759
-0.0788039,0.3565203,0.0600621,-1.5399934,-0.2801200,0.4956075,0.6403667,0.7576532,-0.1940044,0.3993913,0.3819078,0.3211326,0.0432723,-0.2898143,-1.9445298,-1.0980223,-0.4058329,-1.2087111,-1.2401916,-1.4955759,-1.5846007
-0.0269666,0.3537683,-0.0423304,-0.9635625,-1.0018793,-0.0747530,0.6090559,0.7419457,-0.2008319,-0.2817002,0.4201270,-0.1557804,-0.0940710,-0.2713834,-1.4086123,-1.1738349,-0.1526745,-1.0873826,-1.2815942,-1.6956624,-1.8873851
0.2314868,0.5362098,-0.3279002,-1.0564243,-0.1543460,0.0740831,0.8211709,0.7164485,-0.3196080,-0.3977923,0.3464803,-1.0925128,0.1530424,-0.3457073,-1.4538772,-1.3493099,-0.5231950,-1.3426950,-1.1673931,-1.8503737,-2.3081048
-0.0663617,0.5255111,0.0763513,-1.1646427,-0.0761556,0.1277075,0.8038337,0.5063236,-1.3471318,-0.2832583,0.4195635,-0.0712337,0.2707141,-0.3408383,-1.2451243,-1.8665049,-0.1223087,-0.8894005,-1.1823689,-1.7558614,-1.9675736
-0.0107092,0.2756211,0.3677125,-0.6448866,-0.9967565,0.5393843,0.5021330,0.5464135,-1.0578070,-0.0247417,0.5975559,0.7014138,0.4544772,-0.1033470,-1.1457900,-1.4257609,-0.0284487,-0.1994093,-0.5664424,-1.1224177,-1.6668550
0.2228662,0.1700679,-0.2590652,-0.9578598,-1.1512159,0.5908967,0.7257344,0.9099222,-0.4889342,0.1126501,0.7825864,-0.3301787,0.2680228,-0.1384831,-0.9056426,-0.3139704,-0.0355444,-0.6300299,0.0130124,-0.6752347,-1.5749129
-0.1425409,0.1646834,0.4612531,-1.4519370,-0.9978259,0.9110891,0.8361515,0.9025646,-0.4943036,0.0551511,0.6236412,-0.0655618,0.4629741,-0.0174118,-0.8165793,-0.7766257,-0.2777941,-1.0331056,-0.2646092,-0.7837418,-1.3551935
-0.3419442,0.0874863,0.3341092,-1.0551817,-1.2334616,0.7222208,0.8224173,0.6665017,-0.7114108,-0.0336355,0.7266088,0.0212863,0.6451607,0.0531981,-1.0920786,-1.1281837,-0.1813590,-0.8297658,-0.8271554,-0.8166784,-1.6193591
-0.3654382,0.1468886,-0.2208489,-0.9355375,-0.9310217,-0.1711797,0.8919861,0.9075527,-0.7843599,-0.0661590,0.5425095,-0.9224145,0.2247745,-0.0930082,-0.6785560,-1.2164479,0.1337428,-0.6986014,-0.2552669,-0.6673492,-1.4091076
-0.2860317,0.0763970,-0.5583821,-1.4351089,-0.8267245,0.6646584,0.6285619,1.0552076,-1.1798531,-0.2587040,0.6806036,-1.1776351,0.1923842,-0.7292434,-0.6991143,-1.4106168,-0.0999994,-1.1128447,-0.4354150,-0.9259233,-1.2641910
-0.0362136,0.0562774,-0.1551207,-0.9869478,-1.0270687,0.5141011,0.5700240,0.8377208,-0.4406195,-0.0345341,0.3697349,0.2470325,0.4090186,-0.3871390,-0.4508092,-0.8365614,-1.0906228,-0.5901575,-0.2141443,-1.1647611,-1.2177299
-0.1949548,-0.2771156,0.0138693,-1.5850575,-0.4478416,0.9514139,0.7835343,0.6491826,-0.4255255,0.2325739,0.2848060,0.2789383,0.2748158,-0.0003587,-0.4287875,-1.3144311,-0.7610175,-0.2677834,-0.2036913,-1.3752857,-0.9390648
-0.1729049,0.1675977,0.1603114,-1.1772705,0.1714928,1.0356961,0.6157631,0.5887690,-0.5448544,-0.5495929,0.5772861,-1.0625041,0.9448596,-0.0333289,-0.1198703,-0.9542351,-0.2278982,-0.3764012,0.1776017,-1.5012909,-0.8124553
-0.3890263,-0.4368649,-0.7789707,-1.0742372,-0.6730887,0.5656049,0.6681932,0.6591615,-0.5548394,-0.4965615,0.5209468,0.5795021,0.5960038,0.2519453,-0.2243156,-1.0803134,-0.2271640,-0.6847219,-0.0302503,-1.2447016,-0.8678409
-0.4616660,-0.7043887,-0.3113071,-1.1415997,-0.7263801,0.6208248,0.9352633,0.6054766,-0.5342808,-0.3153046,0.3645492,1.0164478,0.2303328,0.0965692,-0.1006110,-1.0793022,-0.5662547,-0.2969245,-0.1606779,-1.6847413,-0.9949742
-0.4669363,-0.1100531,-0.4852601,-1.1970133,-1.4713854,0.6056346,0.8217959,0.8023784,-0.1547596,-0.4302070,0.3701762,0.0233075,0.4132814,-0.0232142,0.2552492,-0.9810650,-0.2057528,-0.6966750,-0.1887123,-1.1249017,-1.3774850
-0.4583581,-0.5618026,-0.5523986,-1.3853694,-1.7437390,1.6025819,0.8405264,0.9531935,0.6561065,-0.0108682,0.8567430,-0.0499679,0.6703147,-0.7754804,-0.1522605,-0.6071956,-0.3049887,-0.5543099,-0.1857648,-0.3595545,-0.9712385
0.0456305,-0.5446936,-0.6060191,-1.1892512,-1.9691502,1.0413485,0.4280258,0.9472795,-0.1556453,0.8698585,0.7039124,0.7707731,0.4676955,0.0708558,-0.0384301,-0.3680476,-0.1045183,0.1215016,0.0159134,-0.3809375,-0.4633105
0.2495397,-0.2764320,-0.7667630,-0.8924627,-0.9459257,0.5860042,0.6302084,0.7871097,-0.5105538,0.1169139,0.2439918,-0.0489053,0.5636663,0.5126064,0.3437314,-0.3396967,-0.1716472,0.2763116,0.6338142,-0.5905089,-0.1188251
0.4397949,0.0130816,-0.2716863,-0.5277396,0.1221251,0.4865768,1.0340629,0.7144195,0.3049594,0.0215330,0.2076348,-0.4953341,0.8334132,0.0414380,0.9490240,-0.0099643,0.5665585,0.1036831,1.0629941,-0.1288929,0.3249406
0.5061110,-0.1143313,0.0856740,0.1832437,-0.3928640,1.4859586,1.0771977,0.9229457,1.0321029,0.3373336,0.3832653,0.3393626,0.6895260,0.2898135,1.3208922,0.1370582,-0.0482761,0.8265638,1.0361201,0.2893046,0.3350832
0.4645364,-0.3262865,-0.2982432,0.0081657,-0.4692557,1.4600080,1.1604578,1.0979301,0.9123898,0.1320801,0.4286847,0.9642197,0.6712025,0.7557486,0.7345201,-0.7429866,-0.6302469,0.1564865,0.7288869,-0.3226748,-0.3051733
0.1343811,-0.5007663,-0.0323222,-0.4835640,-1.3481160,1.4309332,1.0490936,0.9033145,0.7298947,-0.2151550,0.5074409,-0.0822872,0.6934407,0.2390247,0.4334176,-0.5045784,-0.2798366,-0.3686954,0.4560864,-0.4707271,-0.6308227
0.1488290,-0.1175098,0.6003801,-0.2701456,-0.4085080,1.5216603,0.9448545,0.9536813,0.8799877,0.0131838,0.6262411,0.8521366,1.2523378,0.3486918,0.7868933,-0.4571643,0.1385834,-0.4008668,0.3604688,-0.2935676,-0.2836939
0.4547107,0.0585367,0.9623247,-0.8574805,-0.8472372,2.1387920,1.2782195,1.2112428,0.9839661,0.4714822,0.5804803,0.9573479,1.1057630,0.4697079,0.8285542,-0.4789007,0.3275602,-0.1187207,0.5528086,-0.2133727,-0.4444747
0.6201723,0.4771209,0.8996949,-0.1864805,-0.2578371,2.0520158,1.2298033,1.1389630,0.7638968,0.6556763,0.8216100,0.2946604,0.8409870,0.3653838,0.6407992,-0.1232335,0.5168445,0.0669285,0.1171127,-0.5083789,-0.5757377
0.2322223,0.2326243,0.6181888,-0.1077833,0.2296854,1.6932322,1.2846949,0.8685938,0.8414781,0.6784759,1.0846229,-0.4232999,0.7145345,1.0133932,0.2330408,-0.5428407,0.3199005,0.3242320,-0.2005334,-0.4466088,-0.3843743
0.2293789,-0.3365988,0.7128016,-0.3230863,-0.6434808,1.6907004,1.2039902,0.6452218,0.5799441,0.5420033,0.8131941,0.5584401,0.6847960,0.9109746,0.0813190,-0.6226766,-0.0498868,0.1532000,-0.2428756,-0.7532641,-0.6881204
0.3436558,-0.1652258,0.2461070,-0.2603357,-0.8854463,1.7523611,1.2472519,0.5905970,0.2226204,0.3441768,0.9137866,-0.0352138,1.0898203,0.6523505,0.4535511,-0.6548184,0.6129091,0.4055795,-0.1025153,-0.2777898,-0.3166117
0.3585115,-0.0905936,1.4758348,0.0820703,-0.5023592,1.7584527,1.3452291,0.8827543,0.3380513,0.5560709,0.8296799,0.1204420,1.4966604,1.0269299,0.8080063,-0.3550151,0.5600215,0.2903589,-0.2095307,0.0824893,-0.2093098
0.2574056,-0.3027867,1.2016537,-0.6826863,-0.3261622,1.2279706,1.2175113,1.0703270,0.9133955,1.0387267,0.8450323,1.2729234,1.0735369,0.9865406,0.5339040,-0.4567902,0.2754351,0.1720090,-0.6916378,-0.2833979,-0.8527916
0.0607214,-0.3582648,0.6778510,-0.7720445,-1.3236935,1.4302410,1.0095706,0.8140953,0.3651939,0.9934554,0.9461839,0.5878729,1.0247599,0.9788635,0.3179334,-1.0352067,0.1512887,0.0502642,-0.2296211,-0.7152852,-1.1406900
0.2173986,-0.0978556,0.1576261,-0.1598400,-0.9206567,2.1631634,0.7886682,0.5811804,0.2820245,0.8659158,0.8713189,0.4255706,0.8796938,0.5505667,0.8247157,-0.3828591,0.3205021,0.0554879,-0.0460255,-0.4276993,-1.0187106
0.4696403,-0.1661800,0.2448768,-0.0123996,-0.2356983,2.1790111,0.7237915,0.4781207,0.2245406,0.7075619,0.9282271,1.5392544,0.8280219,0.4223596,0.7129830,-0.3764827,0.1636041,0.0773626,0.3693488,-0.5336798,-0.7618130
0.4118551,-0.4312454,0.0744007,-0.0059154,-0.2269010,1.4946043,0.9828780,0.6420696,0.2030743,0.7212239,1.2085680,1.5179960,0.7587275,0.3706666,0.8458699,-0.6554153,0.5211890,0.2544467,0.4127970,-0.3717102,-0.3209522
0.2777617,-0.0557924,0.3943986,-0.1928930,-0.2605469,1.7253503,1.0936351,0.8350028,0.5097366,0.6376251,0.9411089,0.8055434,1.1371837,0.8147537,1.3733801,0.0285972,0.9422724,0.7983961,0.7654743,0.3362648,-0.0497784
0.4368304,-0.3112559,0.6458749,-0.0329130,0.5570170,1.8383733,1.0813129,0.8824299,1.0765973,1.0532845,1.1538950,1.0253429,1.2853460,1.1245044,1.0331099,0.2862872,0.9553295,0.8746842,0.5519300,0.6082054,-0.3041876
0.3014899,-0.5735121,0.9160504,0.1681648,-0.2364878,1.3019525,0.7473800,0.7788827,0.7212763,0.7753647,0.8037542,1.7623498,0.7102031,0.8189697,0.2804810,-0.4901686,0.5017043,0.5834670,0.1905730,0.0634295,-1.0540062
0.1442640,-0.5541276,0.1702586,0.1320929,0.3400009,0.9013849,0.5414306,0.6617725,0.5484829,0.5955778,0.9813685,0.7737018,0.2839999,0.4001319,0.5145635,-0.5798596,0.1693715,-0.1411890,0.0504894,-0.3169232,-0.8071181
0.1960594,-0.4741657,-0.1944887,-0.0728463,0.4134655,1.0767162,0.4626811,0.6372093,0.5592027,0.9431962,0.6934735,0.0907831,0.4342515,-0.3580532,0.1699065,-0.3370140,0.2709428,-0.3225837,-0.3559482,-0.2526844,-1.1533384
-0.1744760,-0.7950376,0.2353088,-0.7222309,0.2168699,1.3194213,0.5832971,0.3816990,-0.2777247,0.6307001,0.8554814,0.8294944,0.4061451,-0.2188639,0.0847487,-0.6943483,0.1150845,0.1705686,-0.6178508,-0.0787285,-0.8927694
0.0687582,-0.7583738,0.3614740,-0.0886754,0.0319545,0.9813709,0.7908214,0.3391119,-0.7337436,0.6742195,0.7732152,0.8307204,0.7220447,0.7706186,-0.0108930,-0.4308912,0.5128888,0.6002576,-0.3060609,-0.0218290,-0.5509470
0.0369983,0.0008314,0.5126309,0.2316910,0.0533993,1.5030075,1.1316026,0.5523000,-0.2896266,0.8809444,0.8157170,0.5426036,0.8313540,0.5338757,0.3636418,-0.7967709,0.4453888,-0.0086643,-0.5044017,-0.3402174,-0.7239736
0.0513839,-0.7324725,0.4981369,-0.1257108,0.2193356,1.5097280,1.2699473,0.4525232,0.2885658,0.6176111,0.8821936,1.2021976,0.8074244,0.1653997,-0.2497635,-0.8460818,0.2440084,-0.2453748,-0.6906622,-0.1894834,-0.9166082
0.1100205,-1.3066568,0.2643363,-0.6600541,-0.8718060,1.5753267,0.9113935,0.1823092,-0.4649561,0.6916624,0.7836426,1.6562092,0.3517631,0.0243171,-1.0833046,-1.2749976,-0.1605813,-0.5293898,-0.9634038,-0.4746470,-1.5303568
-0.0443885,-0.6580375,-0.3420903,-1.2284341,-1.0865567,1.0331042,0.4424598,0.1908735,-1.1922507,0.4816858,0.5292284,0.0387906,-0.0558911,-0.0377039,-1.0865481,-0.9182186,0.2005174,-1.0438039,-1.2911025,-1.1871552,-1.6349034
-0.0933810,-0.5143522,0.3085922,-1.5508870,-1.1772621,1.3348645,0.7255403,0.0823386,-1.4940602,0.2850676,0.3051214,-0.5206713,0.0811425,-0.1297810,-1.8993797,-1.1448303,0.1577639,-0.8826200,-1.5059661,-1.1201410,-1.3893625
-0.4179010,-1.0948398,0.2629960,-1.1300814,-1.1060551,1.1547992,0.7035990,-0.1367605,-1.8886641,0.1537563,0.5709210,0.8782073,0.3289383,-0.0027599,-1.6758884,-1.3133794,0.1719263,-0.4604663,-1.6795847,-0.7485474,-0.9200495
-0.1370104,-0.6222388,-0.1992676,-0.8474466,-1.6677148,1.0783839,0.6048223,0.1407329,-1.6018215,0.0590363,0.7364658,0.4506375,0.5451658,-0.3682017,-1.3429511,-1.7428622,0.2103143,-0.4048902,-1.8307568,-0.7481135,-0.6056335
0.1726094,-0.6712449,0.0488672,-0.5368249,-0.5966280,1.1574615,0.2765808,0.2055348,-1.3587044,0.1586117,0.6325395,-0.1515359,0.0077646,-0.1687826,-1.2402710,-1.1732892,-0.0323591,-0.8802623,-1.2740623,-1.4350358,-1.2330755
-0.0702481,-0.7446705,0.1286946,-1.2928786,-0.1753575,1.7818474,0.4788297,0.0561524,-1.1629235,0.4032627,0.8022763,0.9090652,0.5345148,-0.0738210,-0.8210672,-1.0196238,-0.6719803,-1.0421218,-1.4549990,-1.0665413,-1.5119234
0.2392644,-1.0862031,-0.0167058,-1.2464557,-0.8886751,1.4745144,0.7498080,0.1481917,-1.0738739,0.0050164,0.8077663,0.9481031,0.4248542,-0.0586345,-1.3046138,-0.9533349,-0.2416572,-0.7175970,-1.2755122,-1.4541389,-1.1319021
0.2115675,-1.0363930,-0.0161317,-0.3822027,0.0276557,1.2524271,1.0571897,0.2522211,-1.2012650,0.2903340,0.7885742,0.5366692,0.7422125,0.2581179,-0.9808374,-1.1683618,0.6123077,-0.1649124,-0.9130166,-0.9596563,-0.8490222
0.6408005,-0.5227476,0.2967225,-0.0546795,-0.3949541,1.6751428,1.1581662,0.2818468,-0.7739111,0.3941182,0.7702748,1.6517526,1.1985453,1.0381041,-0.8068680,-1.0927930,0.7813958,0.1692349,-0.7313088,-0.6486477,-0.5230936
0.1294273,-0.6950336,0.7578970,-0.5819896,-1.2428592,1.6981769,1.2052993,0.2926915,-0.5114130,0.8343157,0.8723410,1.9021922,1.1458284,1.0035444,-0.7773700,-1.1820167,0.4662070,0.1751693,-0.6641424,-0.8503438,-1.2000310
-0.2555878,-0.6484137,0.1594699,-0.4875903,-1.5166502,1.2554926,0.5159815,0.3091545,-0.2308356,0.5092289,0.7393806,0.5668533,0.6466724,0.6989233,-1.1854144,-1.5219923,-0.1717965,-0.0260679,-1.4066061,-0.5554802,-1.5081372
-0.0957982,-0.9023307,-0.2852064,-0.5831607,-1.3839421,1.8765866,0.4475563,0.0845652,-0.4272812,0.1632091,0.7803888,0.4236051,0.2645664,0.2898871,-1.7469618,-1.3889918,-0.3503247,-0.3234225,-1.4635876,-1.0595081,-1.1863223
-0.0347524,-0.7415588,-0.4617636,-0.6373102,-1.0737617,1.1634080,0.4709274,-0.0001673,-0.3737265,0.5509015,0.8020830,1.8808038,0.4742816,0.4964049,-2.0291960,-1.3158514,-0.8408566,-0.8734426,-1.4470915,-1.1594815,-1.4233954
-0.2152288,-1.2678380,-0.2539756,-0.9264390,-0.9805688,0.6825042,0.3506940,-0.1148583,-1.1708599,0.2590984,0.4955415,0.8258349,-0.0410794,-0.3036243,-2.3310094,-2.0777996,-1.0795591,-1.1210339,-1.8488046,-1.5070012,-2.2350695
-0.1329763,-0.9457995,-0.6612486,-0.7702473,-0.3135081,1.2925041,-0.0972119,-0.1968330,-1.5725043,-0.3036402,0.2882085,-0.1418500,-0.5216846,-0.8332369,-2.6502793,-2.1079648,-0.6322259,-1.2720258,-2.3028784,-1.8383663,-2.5306146
-0.1309337,-0.7251377,-0.1835847,-1.1720706,-1.0631324,1.0458968,0.0719277,-0.4555276,-1.3437101,-0.1951004,0.0494755,0.7920597,-0.2368055,-0.6860117,-2.2276716,-2.0471976,-0.7951362,-1.8004396,-2.0471213,-1.5834149,-2.3671484
-0.0121677,-0.8815294,0.0536954,-1.0511634,-0.6964507,0.8267339,0.2422817,-0.3206056,-1.0542580,-0.2328207,-0.2511689,0.5494823,-0.3625002,-0.6921509,-2.4238465,-1.7945035,-1.0716964,-1.3746270,-1.8860656,-1.8945249,-2.2186782
-0.4383947,-0.5877605,-0.6957076,-1.3994464,-0.8050047,0.7220916,-0.1319219,-0.3928907,-1.2227675,-0.2144920,0.3045850,-0.6584541,-0.2344881,-1.2524552,-2.0178797,-1.3602821,-0.6713688,-1.4133857,-1.4245032,-1.1661098,-1.9671533
-0.8467726,-1.0468359,-0.6566736,-2.1458793,-1.0407332,0.4094232,-0.1684881,-0.6406904,-1.1182694,-0.3056748,0.2524879,0.2307128,-0.1801938,-1.3250533,-2.0176919,-1.4372408,-0.8786312,-1.9773257,-1.2420841,-1.5256838,-1.8676827
-0.3186356,-0.9510099,-0.4781778,-1.1012766,-1.4977777,-0.4735321,-0.3995048,-0.5458030,-1.2785200,-0.2831731,0.2419342,0.1114552,-0.7868668,-1.5200887,-2.0555141,-1.9483219,-1.1634575,-2.7365103,-1.6650407,-2.2107220,-2.2695744
0.1763040,-1.1438376,-0.7126827,-0.7382101,-1.2074351,0.3314196,-0.7032571,-0.2010286,-1.4067292,-0.1546155,0.3718037,-1.3243299,-1.0439225,-2.0969622,-2.3966141,-2.3172705,-1.8202710,-3.4610925,-1.7384193,-2.7929442,-2.5931668
-0.2962110,-1.2911805,-1.3739325,-1.9675606,-1.7416325,0.2183625,-1.2203393,-0.3622868,-1.9279177,-0.6472564,0.3698191,-0.9978507,-1.3728956,-2.8770864,-2.5747035,-2.2764962,-2.0232995,-3.6897142,-2.1932838,-2.4033730,-2.5623193
-0.1528912,-1.5402077,-1.7494777,-1.0677190,-0.8976354,0.0264816,-1.5275769,-0.7372266,-2.0753682,-0.1171658,0.1715447,0.1280170,-1.4809766,-3.0624282,-2.3966525,-2.0999224,-1.8232211,-3.4173830,-1.9391329,-2.0880535,-2.4444759
0.3857890,-1.3853551,-1.8149267,-0.0983446,-0.5466638,-0.4428531,-1.7808210,-0.5578185,-0.8472063,-0.0636260,-0.1121330,-0.5940655,-1.5914835,-3.0860665,-2.1761067,-2.1298361,-1.6645185,-3.3948815,-1.9474659,-2.5231926,-2.3463216
0.5090857,-0.9293511,-2.0925574,-0.1305772,0.1599108,-0.2816535,-1.6966606,-0.1532767,-0.7173631,-0.2408389,0.0675696,-1.0872973,-1.7765443,-3.0995038,-1.7244455,-1.8444552,-1.1824549,-3.3485579,-1.9362481,-2.0123224,-2.4964826
0.3838307,-1.3921530,-2.1506743,-0.0216682,-0.2661282,-0.5439389,-1.6945744,-0.0751839,-0.5826409,-0.3324191,-0.2566816,-0.0803693,-1.1901152,-2.9315431,-1.8549355,-1.7108711,-1.2826620,-3.4771056,-1.7382375,-1.6851499,-2.7912164
-0.1346890,-1.1248423,-1.9403210,0.0097209,-0.3709872,-0.4439197,-1.9192456,-0.0643085,-1.6180959,-0.9072683,-0.4708229,0.2120088,-1.0409802,-3.0422125,-2.3157334,-1.9422085,-1.1447636,-3.1542263,-1.8036858,-1.7192451,-2.8333585
0.0462720,-0.9137456,-1.5662448,-0.0250203,0.5795308,-0.1666616,-1.6624407,0.0045091,-0.8836496,-0.4848455,0.0628941,-0.0187960,-1.0783478,-3.0411959,-1.5983924,-1.8493429,-1.1480955,-3.0953093,-1.9819181,-1.7235311,-2.5918329
0.5052835,-1.1556622,-1.5532461,-0.2394049,0.8657308,0.3119116,-1.5758592,0.0215056,-0.7331198,0.0331120,-0.1188664,0.5913439,-0.9897381,-2.5733199,-1.3949929,-1.6498624,-1.5059876,-3.1304655,-1.7761635,-1.6414558,-2.6266642
0.4738445,-1.4364856,-1.9072410,0.2862073,-0.3402576,-0.2971772,-1.3616726,0.1755992,-0.7270994,-0.0010932,-0.1808952,0.8065374,-0.8812447,-2.1142411,-0.8541655,-1.6817821,-1.5052907,-2.3674474,-1.4996177,-2.0100126,-2.3845303
0.6992065,-1.3798349,-1.9424236,1.0233498,-0.5378228,-0.4206789,-1.2098131,0.2728834,-0.0789230,-0.2540007,0.0262848,-0.1737815,-0.8725792,-2.1860054,-0.2921774,-1.5111701,-0.7835974,-1.8899429,-1.1893435,-2.0705392,-2.1422980
1.1881788,-1.1720469,-1.3671548,1.0411841,0.5479130,-0.2019942,-0.9724305,0.4590007,0.3359567,-0.0898183,0.0438379,0.4409522,-0.7481845,-1.7654247,0.3191632,-1.0783464,-0.2112758,-1.2956411,-0.9211593,-1.2268084,-1.4497974
1.1423661,-0.7459285,-1.5468571,1.1354609,0.0504494,-0.2177578,-0.9336476,0.3738494,0.3415689,0.5787988,0.1326193,1.3846279,-0.6666273,-1.4576387,0.0633603,-0.8920034,-0.3417669,-1.7642918,-0.4637685,-0.3071491,-1.1275070
1.0244701,-0.7178268,-1.7394774,1.2173461,-0.5147516,-0.3898803,-0.9070635,0.4504859,-0.0433914,0.7999530,0.3480828,0.7151657,-0.7259647,-0.9940242,-0.0488458,-0.6645045,-0.1643877,-1.0866749,0.0360446,-0.2895547,-0.7696010
1.1275052,-0.5028791,-1.2807624,0.8118782,0.1141610,-0.1555788,-0.4898680,0.6499671,0.5460022,1.0562946,0.6118839,0.0277517,-0.0218571,-0.7443247,-0.1729731,-0.4187714,0.4915203,-0.5989588,-0.1761705,-0.2213361,-0.3283328
0.8721026,-1.1359508,-0.9705595,0.8867630,0.0489582,0.3897148,-0.2686876,0.4921501,0.4579350,1.1764693,0.4048247,1.0198448,0.3122890,-0.2676346,0.0892527,-0.6232060,0.8199834,-0.0924681,-0.8195413,-0.0077957,-0.1424199
1.1543393,-0.8848608,-0.8718499,1.3694421,-0.0346244,0.2622498,-0.0559120,0.3925663,0.9057084,0.8723203,0.0264468,1.0103405,0.2171737,-0.0931515,0.3837177,-0.7093447,0.2823071,0.0064379,0.0101650,0.1396239,0.2610812
1.4543276,-0.5132967,-0.3622265,1.4175659,1.5926580,0.4421152,0.3872426,0.6317077,1.3102801,0.7471524,0.1864119,0.4897054,0.5569673,-0.2093112,1.0504107,0.1672382,0.7284818,0.1560331,0.6245537,0.8797447,0.7387263
1.6933774,-0.8941648,0.3937311,2.1067519,1.6419948,0.5010778,0.3761657,1.0712588,2.3059876,0.8907120,0.1074186,1.0143702,0.2917975,0.1865289,1.7520452,0.4939626,1.2330284,0.5634793,0.7996528,1.3627198,1.0128400
1.7212020,-0.5076208,0.2062881,2.5482018,1.6389382,0.4261469,0.4041536,1.2946669,1.9289490,1.2047888,0.5444251,0.7363245,0.1350271,0.4659872,2.2665131,0.4176976,1.4614904,0.6644687,1.4546307,1.4190577,0.9993098
1.6161815,-0.1846434,-0.7666478,1.9162217,1.7029320,1.0534923,0.3790366,1.1336199,2.1062949,1.1569197,0.3080827,-0.0006011,0.2442127,-0.5076352,1.8741055,0.7095023,0.7079597,0.4338983,1.5331225,1.3770280,0.8323544
1.5020801,-0.0575349,-0.6955782,1.6872472,1.5555122,0.2949242,-0.0924218,0.7003911,1.8572028,0.9568548,0.1139602,0.0828326,0.2008266,-0.2218018,1.6662148,0.5307099,0.6471964,0.1952621,0.9512693,1.0584772,0.7726811
1.4486237,-0.5232378,-0.6530463,2.1393731,1.4104391,0.7027154,-0.0979335,0.8362266,1.4830176,1.5336695,-0.3228991,1.8857102,0.2911865,0.1695903,1.4851514,0.0459243,0.4736884,0.4926669,0.7677835,1.1137217,0.5761743
1.6528248,-0.9821081,-0.6789566,2.0436420,1.1610482,0.6507840,0.1990130,0.8104247,2.1218586,1.5328032,0.1998459,1.3638066,0.4940370,0.2222382,0.6399460,-0.4417457,0.3625742,0.1382584,1.0288614,0.4481548,0.2259128
1.6482614,-0.7723501,-0.3635350,1.8501699,2.2957551,1.0104454,0.1839615,0.9066312,1.7362154,1.1021422,0.4963073,0.2078542,-0.2832986,-0.0029935,0.8944746,-0.3252273,0.3204357,0.0735841,0.8172776,-0.0160555,-0.3494655
1.5764529,-0.6563835,-0.6222739,1.6829669,1.8318318,0.3231859,0.3231559,0.8500762,1.8063864,0.7177182,-0.0389070,1.4493734,0.0427715,-0.2494222,0.5053126,0.1789335,-0.5958444,-0.4176366,0.2305322,-0.4024250,-0.2731782
1.7166095,-0.6387290,-0.7162253,1.9615146,0.4451678,-0.2047769,0.0656670,1.0650743,1.7156264,0.7128389,-0.3352022,1.6035517,-0.0528424,-0.3141023,0.6252987,-0.2249782,-0.3946448,-0.1359153,0.0012518,-0.4772595,-0.6227565
1.6716751,-0.8322690,-1.5317338,1.7877246,0.7256003,0.0662713,-0.4943852,1.1120538,1.5365635,0.5005802,0.0817809,0.5470400,-0.4732877,-0.5138792,0.2504468,-0.6079218,0.0956782,-0.6678976,0.0979234,-0.1330924,-1.0965407
1.0222852,-1.4172453,-2.1531031,1.0606033,0.4861453,-0.1018814,-1.0875655,0.5089341,1.5334927,0.6162202,-0.1244371,0.6982238,-0.9041969,-1.0367548,-0.5807709,-0.7985947,-0.9227309,-1.2862446,-0.4687399,-0.8241314,-1.8825898
0.8549081,-1.5644145,-2.4338708,1.2570231,0.2537284,0.1881675,-0.7692612,0.2747914,0.8296731,0.4176418,-0.1883906,1.2315955,-1.2908911,-1.6944638,-0.2302283,-0.9797267,-0.8787969,-1.2208972,-0.5732291,-1.0919877,-1.3816032
1.3489361,-0.5520527,-1.5943782,2.0018346,0.8472870,0.0321124,-0.5247081,0.8371339,0.9038629,0.4516484,-0.1559945,0.0322066,-0.9682798,-1.2714616,0.6442515,-0.9011424,-0.7339507,-1.5519240,-0.2982776,-0.7042864,-0.7008948
1.6384671,-0.8499817,-1.3084960,2.2488666,0.5843638,0.0529283,-0.4692416,1.0447299,1.4598351,0.9532875,-0.0021855,-0.3127287,-0.6158317,-1.2142750,0.1847756,-0.1640694,0.2218008,-1.1926531,0.1057710,-0.0889546,-0.7859216
1.8605340,-0.9720954,-1.9598588,1.9753933,0.9270332,-0.0817655,-0.0993417,0.8070576,1.0928893,0.6513746,-0.0732322,0.6684791,-0.6145374,-0.8412943,0.6045231,-0.7425607,0.3913556,-0.6302195,-0.1583926,-0.3306051,-0.3964096
1.7288990,-0.6485585,-1.7949735,2.0659628,1.0636716,0.1644521,-0.1372834,0.7035809,1.1832290,0.8027553,0.1816031,0.2938058,-0.3256246,-0.4671948,0.6545680,-0.0985311,0.6653809,-0.7204769,0.5403135,-0.0080485,-0.1711570
1.8931718,-0.3538244,-1.5778954,1.9705461,1.2574525,-0.5073696,-0.2784309,0.8039123,1.6830227,1.4998047,0.5978581,0.1362844,-0.1234972,-0.0974424,0.6697206,0.2274272,0.2403726,-0.7435980,0.7549098,0.7217148,-0.1460900
1.5987961,-0.8342589,-1.8209929,1.8965826,1.5552834,-0.7808335,-0.7419865,0.7310634,2.2160003,2.1653035,0.7899768,0.9497032,-0.1380354,0.0210042,0.6586646,0.2435417,0.6630185,-0.8947793,0.9910628,0.4764385,0.0418745
0.8827170,-1.5700930,-1.8649881,1.7635242,0.9497239,-0.7880092,-0.4353889,0.9530658,2.0385187,1.5515223,0.7802700,0.7251356,-0.1490094,-0.4588071,0.9725862,0.6848736,0.9341415,-0.0749851,1.1004386,0.7313545,0.8128291
1.3614810,-0.5666271,-1.3262256,2.2819338,1.8980352,0.2603312,-0.1745913,1.2048663,2.6849895,1.7568951,0.9687374,0.5360926,0.1833061,0.4160502,1.7911469,0.8646845,1.8341658,0.7071518,1.7236830,1.7997230,1.4375339
1.5162438,-0.2509862,-0.9397371,2.6990499,1.4296457,0.3279177,-0.1662625,0.9907949,2.2252855,2.0882061,1.1323481,0.7039453,0.6074368,0.9763452,1.9176334,1.1206231,1.5684688,1.0859531,1.7447268,1.6254809,1.4425542
1.3887258,-0.9000719,-0.7709551,2.3535438,2.0232966,-0.1158445,-0.0139732,0.8369675,2.4557583,2.0374310,0.9877232,1.1340170,0.1524935,0.8088573,1.6888132,1.3161007,1.1369331,0.6727402,1.5775597,1.7077247,1.1882901
1.2441461,-0.4427608,-1.3392456,2.1400850,1.6090444,0.0772768,0.2236604,0.7052993,2.7404315,1.6360844,0.7492242,0.4065261,0.2586776,0.5315307,1.6143103,1.1260400,0.8267206,0.2942946,1.7860307,1.4963286,0.4293594
1.3223454,-0.8912399,-1.9065058,1.6569265,1.3171324,-0.0366737,-0.2802138,0.6549423,2.2936475,1.7543687,0.9154955,0.7026945,0.2325718,-0.1490394,1.3123926,0.7496569,1.0319992,-0.3355186,0.7707925,1.1096780,-0.3732377
0.8223907,-1.3159935,-2.1897039,1.7025731,0.3654708,0.0758609,-0.6606970,0.4808677,1.8145474,1.4708799,1.1766120,1.7170517,0.1299933,-0.7440165,0.7060743,0.9255920,1.1728282,-0.4666965,0.0646016,0.8703801,0.2568360
0.8429372,-1.0182313,-1.6752700,1.8067958,0.3509645,0.0499455,-0.4491274,0.4668354,1.0616416,1.9359354,1.1615139,0.8612210,0.0346143,-0.5020292,0.6289207,0.7064505,1.3792912,-0.4223928,0.3798227,1.0824307,0.0599819
0.8349748,-0.7744614,-0.9493185,0.8771765,0.5944095,0.3074212,-0.5482075,0.4776178,1.0373069,1.2146448,0.9194062,0.4960003,-0.3629383,-0.2013697,-0.0845136,0.3080158,1.2257648,-0.4690001,0.2306264,0.8529016,-0.5860629
1.2029014,-0.5569202,-0.6838645,1.3170061,0.6331086,0.7810219,-0.5899196,0.4568673,1.0100379,1.4255621,0.6904320,1.6107457,-0.0183887,-0.6041248,0.2615649,0.3410529,1.4027383,-0.1972673,0.2821173,0.5463815,-0.0677096
1.1836607,-0.3733704,-0.6149407,1.3954103,-0.0161869,1.1710374,0.0917567,0.6716507,0.9977588,1.5128002,0.3711000,1.6761016,0.1907798,-0.4158069,0.2943021,0.7031657,1.4657892,-0.0889525,0.1895482,1.3930202,0.3105512
0.9157953,-0.4909259,-0.8096758,1.3422552,0.0677149,1.1167401,0.2633561,0.5053563,1.2891935,0.7457616,0.3797535,0.7374772,0.1985755,0.2067115,-0.0396653,0.4864188,1.5884120,-0.1985800,-0.0199954,1.3688161,0.0322455
0.6664230,-0.7337775,-1.0882653,0.6573125,0.2689190,0.7161406,0.0098104,0.2406005,0.7779215,0.9115611,0.4773178,0.9935754,0.0937759,-0.0119601,-0.3316556,-0.0706297,1.3776588,0.0834997,-0.1297232,1.4142078,0.1681536
0.6244754,-0.3549903,-1.1414388,0.7514757,-0.4617120,0.7320680,-0.1605597,0.2448089,0.7590402,1.0731161,0.4242535,1.4362842,0.1389257,-0.4246002,-0.2504738,-0.1559694,1.0088083,0.1983283,-0.2563787,1.1584740,0.0804092
0.8443978,-0.4008834,-0.6900591,0.6490491,-0.2023564,0.8039548,-0.3872329,0.3294144,0.9581554,0.4161303,0.4502935,0.0532657,-0.0176189,-0.0049920,-0.2321887,-0.4365669,0.7797494,-0.1089178,-0.2148147,0.6209831,0.0431979
1.0106117,-0.1451169,-1.0486703,0.7114433,0.7773878,0.4773401,-0.0718925,0.2295040,0.2370781,0.5936072,-0.0704812,-0.2863889,-0.2175221,0.1356827,-0.9095086,-0.9597603,0.0965483,-0.1273394,-0.6247460,0.0141742,0.0470257
0.8103040,-0.4235678,-1.4326937,1.0228312,0.8875690,-0.3828810,-0.5085619,0.0960563,0.7147781,0.4201207,-0.1574701,0.4381734,-0.4916812,0.0364915,-0.1367297,-0.9539298,-0.0697760,0.5538164,-0.4715163,-0.2832822,-0.0232671
1.0338584,-0.0407177,-1.3743119,1.2173464,0.1835362,-0.8182371,-0.3483872,0.2795548,1.0828801,0.3746055,-0.1550935,-0.1947644,-0.5057464,-0.0516854,0.3861746,-1.0269908,-0.2190160,0.4786067,-0.0058721,0.1206688,0.0005872
1.2363869,-0.1309331,-0.9959966,1.3709301,0.7009151,0.1662802,-0.2714738,0.6135865,1.6951945,0.7394361,-0.0793966,-0.7389830,-0.4233977,-0.3973203,0.8137435,-0.7931432,-0.2214518,-0.2137229,-0.3298798,-0.0711015,-0.4825019
1.3370986,-0.5170658,-1.3604717,1.6637840,0.3398766,-0.1141323,-0.5147349,0.6575007,1.9554633,0.4131160,-0.4714797,0.3401093,-0.1530570,-0.2363460,0.7875605,-0.5554089,0.1419832,-0.3808642,-0.1636051,-0.8836206,-0.8116168
1.0336865,-0.5142121,-1.8786815,1.2054601,0.0202415,0.3376250,-0.3248404,0.6599550,1.7559534,0.6296638,-0.0493616,0.0305080,-0.6951941,-0.4829567,0.1992215,-0.6987391,-0.5837775,-0.6136175,-0.2483061,-1.2967850,-1.4676497
1.0097235,-0.5213919,-2.1284583,0.6698496,-0.3024015,0.1010386,-0.8862412,0.5431001,0.5454994,0.6146019,0.0381596,-1.3034996,-0.9632206,-0.7583035,-0.0799297,-0.5421726,-0.2302453,-1.0381809,-0.5654275,-1.0133017,-1.5525920
1.0491618,-1.0466405,-2.0986288,1.1411890,-0.1469788,0.1095421,-1.2478163,0.2512068,-0.2519254,0.5175149,0.1270036,-0.9858125,-1.0131900,-0.5337456,-0.0959666,-0.1289660,-0.2571450,-0.6797810,-0.5243961,-0.4269873,-0.5365224
1.1882491,-0.7740001,-1.6956891,1.0472641,0.1050416,-0.0383509,-1.0178261,0.2844238,0.4077373,0.6539478,0.0759446,0.0780406,-0.8006902,-0.4987384,0.0795151,-0.1724701,0.2215649,-0.3566267,-0.4021622,0.0137795,0.0284780
1.3337177,-0.6515682,-1.6952263,1.1678871,0.3095907,0.2327885,-0.9670005,0.4942611,1.4254458,0.9312609,0.5625357,-0.3440061,-0.4460476,-0.4581783,0.9233930,0.4610732,0.9046381,-0.1540754,0.2690562,0.3744687,0.0086766
1.1467373,-0.7625980,-1.1575037,1.0340019,1.0435132,0.3478403,-0.5361835,0.5223359,1.5362878,1.8139396,0.8012962,-0.1264181,0.0899365,-0.1600371,1.0543152,0.5238435,1.0173876,0.5254519,0.6907113,0.7674547,0.2946964
1.0749795,-0.4028726,-1.3870516,0.9220645,0.0231150,-0.0194153,-0.4366310,0.6451861,2.3396363,2.0907023,0.8984994,0.9256232,0.1996967,0.2949296,1.6939257,0.5330101,1.6417259,0.7852957,0.7302481,1.5841223,0.7878751
0.7642651,-0.5891649,-1.0532652,1.6022164,0.3274062,0.9244813,0.0339187,0.8659657,2.4603307,1.4022698,0.7750939,0.3076867,0.1125703,0.1564431,1.3325790,0.5650849,1.0161629,0.4722700,1.0914810,2.1175685,0.8853137
0.4725502,-0.9808400,-1.3630788,1.9215544,0.8094089,0.5666831,-0.5906446,0.9598940,2.1642978,1.4198235,0.6180407,0.1348391,-0.0865732,-0.4014245,1.2378638,0.9985102,1.4073412,0.0715836,1.1255140,1.8364284,0.7587838
0.8923191,-1.0387172,-1.1998241,1.7374827,0.9637975,0.2292195,-1.0069836,0.8867758,3.0353837,1.5946429,0.8587079,0.9892564,-0.5067414,-0.5197483,2.1947908,1.1758754,1.5731940,0.2731754,1.2433196,1.9912047,1.0272365
1.0523334,-0.3453251,-0.9441472,1.9808977,0.6018471,-0.4507093,-0.8420125,0.7393144,2.3361378,1.7261662,0.5363138,0.7116637,-0.3043489,-0.5309894,1.4645302,1.2102919,1.1146967,0.0951297,1.2520730,2.1684935,1.4152602
1.1437150,-0.2685076,-1.0528249,1.9075576,0.6612972,-0.3661464,-0.6714556,0.7509968,1.8972541,1.2869403,0.3209336,-0.3230858,-0.1767960,-0.1057121,1.1233575,1.1607143,1.2620095,0.1738232,1.0361832,1.9019333,1.1085778
1.1597036,-0.6580201,-1.1246238,1.1565223,0.7628646,0.3048390,-0.2274462,0.7414658,1.1451477,1.0347780,0.2155747,0.3734414,-0.0055572,0.1375689,1.0500065,0.8615376,1.0359961,0.5633968,0.5432004,1.2970347,0.6906145
0.5692269,-0.8808353,-0.6885841,1.4807502,0.0896597,0.2740725,-0.4448327,0.6498706,0.6125644,0.3459655,0.1527056,0.5707769,-0.6478689,-0.5216405,0.2572444,0.1952260,0.4808803,0.4056915,0.3140852,0.9802988,0.1845824
0.4624149,-0.7442598,-0.6949478,1.4056044,-0.5634090,0.2540783,-0.7310258,0.8035725,1.3015290,0.5505497,0.2057416,-0.9637982,-0.8249645,-0.7153959,0.6350079,-0.1628273,0.5348389,-0.5808443,0.1674838,0.4702075,-0.3557133
0.1145681,-0.7582006,-0.5005995,0.7227202,-0.5307247,0.1873357,-0.8728344,0.5986496,0.8227769,0.4816951,0.0121367,-0.4723841,-0.6590329,-0.7297170,0.4300135,-0.2152873,-0.2566786,-0.9552512,-0.1124779,0.0855592,-0.8156427
-0.0079081,-0.7626349,-0.6573897,0.8824518,-0.3142872,-0.4527275,-1.0230634,0.1951246,0.2592487,0.3021589,-0.1745657,0.1584656,-0.7376023,-0.4136414,0.1980467,-0.3392719,0.0766607,-0.5000528,-0.2895795,-0.2927617,-0.4456287
0.5293018,-0.5025094,-0.5770366,1.3940430,-0.1401468,-0.3610683,-0.4827000,0.4314061,0.4470130,0.6729923,-0.2557563,-0.4598317,-0.6719324,-0.2934034,0.5313632,-0.4107349,0.4201461,-0.0289861,-0.3323990,-0.0766298,-0.4890557
0.9611318,-0.2154814,-0.2289054,1.6060100,-0.1917231,0.1436608,0.1797728,0.6635957,1.0919241,1.2620143,-0.1054694,-0.8893471,-0.5937831,0.2894213,0.9931245,0.2588085,0.2287112,-0.1043991,-0.1503495,0.1690172,-0.9058950
0.7387578,-0.6631743,-0.7811041,1.2481552,-0.4639531,0.1276461,0.0548201,0.7406405,1.4304713,0.8244857,-0.2006561,-0.3481092,-1.1045543,0.0362279,1.1199404,0.4689982,-0.2079223,-0.3627248,0.0516046,-0.1324101,-1.1091967
0.8354804,0.0207115,-0.2611896,1.8199922,-0.3453642,0.2513208,-0.2517579,0.6073912,1.1781511,0.3104852,-0.2279783,-0.9034778,-1.1863637,-0.5033960,1.2107255,-0.1288018,-0.0787935,-0.3173748,-0.0971380,0.2412367,-1.3897181
0.8953182,0.2564360,0.1417424,1.8757285,0.5113235,0.3491305,0.0713351,0.6599759,0.6396014,0.6108562,-0.1075314,-1.6272573,-0.5665023,-0.3651673,1.0945442,0.4032139,0.2307564,-0.0859149,-0.1553026,0.5413148,-0.3924187
0.9571678,0.0007149,0.3451289,1.4454626,-0.1221570,0.7603601,0.4216680,0.4899960,0.6180916,0.4130727,-0.2993439,-0.2421557,-0.2430823,0.3818130,0.8659637,0.2649491,0.8776798,0.5267659,0.4291715,0.7236742,0.4926648
1.0163325,-0.3007823,0.5393501,1.2203015,0.1225627,0.8050923,0.6994672,0.5532711,0.8070888,0.5374210,0.0661354,0.6890503,0.0381542,0.6880142,0.9369891,0.3794159,1.1514349,1.1523318,0.5355508,0.7842981,1.2111064
0.9501768,0.0075784,0.5685738,1.7505984,0.1422624,0.2553397,0.6130279,0.4322273,0.7969043,0.7431009,0.0591018,0.0692687,0.1835903,0.6325325,1.2457150,0.8761715,1.4026220,1.6337715,0.8404235,1.4590337,1.5205530
1.2650625,0.2829680,0.0807541,1.9985368,0.7516575,1.1403253,0.4794832,0.5887005,1.3840957,0.9021869,0.1665281,-0.0854175,0.3512849,0.5346630,0.8989208,1.2293479,1.1406044,1.4772713,1.0639443,2.4379935,1.3118504
1.5442666,-0.6324493,-0.0256210,1.9563926,0.2625203,1.3252414,0.3187317,0.6966486,1.4948230,1.1465964,0.1987853,0.7478600,0.5018216,0.7660323,0.9069366,1.2303014,1.1780878,1.1100502,0.7771364,1.8250567,1.3000814
1.2540869,-0.4842996,0.1469681,1.7657400,0.5962332,1.1939061,0.0664053,0.5945601,1.1764253,1.0337828,0.3354226,0.3248873,0.4443366,0.4224316,1.2879928,1.4057935,1.2632242,0.6226166,0.9490338,1.0585060,0.5584035
0.8350735,0.0455482,-0.1791793,1.3907524,0.4440612,0.4874908,0.2348487,0.5311602,1.5009108,0.8674682,-0.0091590,-0.2160583,0.4197747,0.1950893,1.0804756,1.2209239,0.8388404,0.9635268,0.8240760,0.8886263,0.4067664
0.7388075,-0.0642082,-0.1571104,1.1759634,-0.3682401,-0.0371920,0.3311933,0.1744120,0.7950951,0.9267839,-0.0178652,0.7285900,0.1551232,0.1773161,0.4871699,0.9558251,0.6028463,0.8805017,0.2756322,0.4664686,0.3379015
0.9010021,-0.1951737,-0.3137848,1.3611417,-0.4215877,0.4853088,0.2918437,0.2356881,0.6082484,0.6901982,0.1426925,0.2581705,-0.2655877,0.3502235,0.9194815,0.3776105,0.9610628,0.5479138,0.1091539,0.7026015,0.2073938
1.1517869,0.0629112,-0.0692604,1.4364903,0.3762867,1.5586674,0.3459215,0.5213659,1.5263857,0.5953327,0.5412242,-0.1734272,0.0779253,0.4063881,1.1604329,0.9128903,1.1873150,0.6780542,0.3234260,1.0436288,0.3069303
0.9503312,-0.1722667,-0.1213721,1.0146528,-0.2611604,1.0556355,-0.0752158,0.4601177,1.2568911,0.7764221,0.2905803,0.4599635,-0.2595806,0.3709181,0.6193256,0.4811056,0.4134715,-0.2542102,-0.0111710,0.6556278,-0.4530659
0.4302276,-0.8960395,-0.9058965,0.8136293,-1.1736116,0.3482889,-0.3001640,0.1498868,0.7134379,0.7489364,0.2679002,0.3246005,-0.7680491,-0.9909088,0.1866268,-0.0872455,-0.2374125,-0.9352886,-0.8795929,-0.2664277,-1.2841539
-0.1227399,-1.0155593,-1.1103660,0.3828130,-1.3643841,0.5898163,-0.6191390,-0.2710921,-0.4900973,0.3154171,0.2415858,-0.3710330,-0.8570848,-1.2838525,-0.5580849,-0.3576981,-0.1605542,-0.9698316,-1.6751256,-0.6729319,-1.3289399
0.1735580,-0.8269820,-0.8970719,0.2043330,-1.2918828,0.8719742,-0.6750808,-0.2316974,-0.7726830,0.1431818,0.4469120,0.3099176,-0.5480192,-1.6787657,-1.0773691,-0.1691837,-0.3193748,-1.0335613,-1.2185738,-0.3945863,-1.2283951
-0.0558560,-1.5665165,-1.0618199,-0.0589087,-0.7317619,0.2314703,-0.5609114,-0.0022122,-0.6496260,0.5331931,0.2916080,0.8106545,-0.8140506,-1.1003140,-0.9062956,-0.0177107,0.7425262,-0.3830922,-1.4878453,-0.2836690,-0.5834550
-0.1427145,-1.1875114,-1.2445085,-0.4538667,-1.0612302,0.4117009,-0.2701076,-0.2081048,-0.9069944,-0.0351293,0.2889042,0.0724138,-0.7321225,-0.7371180,-0.6058342,0.1638151,1.1562961,0.2887720,-1.0546436,-0.1352706,-0.2396110
0.4494921,-0.9939005,-0.4321563,-0.2526508,-0.7004714,0.6126144,-0.0634005,-0.4062930,-0.1688941,0.2193457,0.6860083,0.2403968,-0.4956242,-0.6043162,-0.3972974,0.2979183,0.8747576,0.4148935,-0.7840486,-0.0036420,-0.3033865
0.5775767,-0.8713684,-0.1372699,0.5069501,-0.5608360,-0.6353741,-0.0190625,-0.2789309,0.5064292,0.7435742,0.4130589,1.1162124,-0.2520404,-0.2231854,-0.2489616,0.4021237,0.6895406,0.7032261,-0.4714821,0.3955078,0.1043874
0.8087141,-0.9607523,0.2152599,0.8868590,-0.1380654,0.6981310,0.0505191,-0.0667716,0.1948731,1.3780066,0.2738859,0.2360894,-0.0254968,-0.1541552,0.5488791,0.8538873,1.0598979,0.7819676,-0.0483812,0.8638625,0.5081888
0.7590120,-0.9030728,0.3849896,0.9172018,-0.6775542,1.2512261,0.3372883,0.1273891,0.1728106,1.0642521,0.5815160,-0.2764978,0.1015816,-0.0742873,0.2765211,0.9312457,1.4407221,0.5474221,0.3189464,0.8603800,0.0931114
0.7216843,-1.1187836,-0.1379803,0.6660653,-0.6940579,1.1301856,0.4557439,-0.0192165,0.7169203,1.2779394,0.7100278,0.7389068,0.3943712,-0.0890769,-0.1854165,1.2077589,1.3189898,0.1403875,0.2736729,0.6646137,-0.1220625
0.2767392,-1.1141883,-0.2734115,-0.0741854,-2.0998831,0.1390296,-0.2286576,-0.2102566,0.3317578,1.1991748,0.2966223,1.3132410,0.0299991,-0.2034792,-0.3652831,0.1714554,0.8820206,0.1530279,-0.2398592,0.4631655,-0.5690011
-0.2798640,-0.9198747,-0.6667285,-0.0246063,-1.5383328,0.0635321,-0.8493589,-0.5275771,-0.5601916,0.1776586,0.0420018,0.2902709,-0.4094918,-0.8756062,-1.1363081,-0.7249092,0.0004322,-0.4718542,-0.9467629,0.0188036,-0.9159919
0.2595449,-0.7503448,-0.3587988,-0.0126856,-0.6017566,0.8290393,-0.6272742,-0.3058704,-0.3600564,0.1161867,-0.0407547,0.2391206,-0.2357204,-0.8745713,-0.4509135,-0.8793986,0.2016611,-0.0957572,-0.8292208,-0.1549813,-0.8049631
0.4594944,-0.2304792,-0.1264849,0.5311240,-1.2504747,0.7820498,-0.1861376,-0.0308024,0.3492498,0.3947527,-0.2514639,1.4967344,-0.1657910,-0.6582879,0.1645636,-0.4341835,0.1110090,0.5295151,-0.9576084,0.0668837,-0.7686094
0.7614874,-0.9077674,-0.3340461,0.5702788,-0.5672017,0.3831151,-0.4422096,0.1448567,0.5133700,0.5812529,-0.5168806,0.7531871,-0.2711312,-0.2721257,0.3740992,-0.1291887,0.6669794,0.9277781,-0.6967939,0.4887984,-0.3101833
0.6461158,-0.7008276,-0.1230490,0.6778421,-0.0244868,0.5277443,-0.2875789,0.0218890,0.2816474,0.9436324,-0.3895628,0.4290386,-0.0499485,-0.2407878,0.0065457,-0.1719528,0.4815807,-0.0184652,-0.6432102,0.1637781,-0.5652877
0.5500563,-0.4782707,-0.6855972,0.4937381,-0.4572306,0.3346274,-0.3998555,-0.4068381,-0.0047460,0.7370971,0.0212032,1.1977938,-0.5202867,-0.4489543,-0.7054279,-0.4660082,-0.0070970,-0.6130511,-1.0685025,-0.0160632,-0.6825466
0.6166155,-1.1616716,-0.9537578,0.2446028,-0.9937168,0.1978925,-0.3624543,-0.6207433,-0.5345678,0.2410231,-0.1143243,1.2900989,-0.4905611,-0.4183628,-1.1835192,-1.0055128,0.1877900,-0.4545708,-1.1689761,-0.0893270,-0.6507730
0.4783161,-1.2504299,-0.7950779,-0.3492888,0.2203887,0.9008507,-0.5439907,-0.7518521,-1.0424278,0.3535038,-0.1942877,0.4407822,-0.4603645,-1.0411775,-1.0279471,-0.6430465,0.2811063,0.2022730,-1.0790422,-0.0732176,-0.6362388
0.4027679,-0.4685446,-1.0629174,-0.2430452,0.1529779,0.9722467,-0.7533470,-0.7996098,-0.6198238,0.3436257,0.1033412,0.8961390,-0.0049602,-1.1230675,-1.3274661,-0.1692407,-0.0330722,-0.3156857,-1.0542790,-0.0626909,-0.3483338
0.4888856,-0.2484655,-1.0349355,0.5454629,-0.7369072,0.1685839,-0.4613503,-0.7970338,-0.0972702,0.1588271,0.1182154,0.8947428,-0.4241356,-1.0432086,-1.4903160,0.0421052,0.5245454,-0.0121684,-0.9719027,0.1007857,-0.5389413
0.5093680,-0.3715835,-0.9218505,0.8156874,0.2476555,0.2546700,-0.2320626,-0.3633663,-0.1320463,0.2928120,0.0894115,0.2332404,-0.4751777,-0.5243815,-0.6165597,0.0519262,0.4750594,0.3210357,-0.6890501,0.1644203,-0.4572734
0.7583929,-0.6109340,-1.6299131,0.5376019,-0.7883988,0.4509397,-1.1479148,-0.2585289,0.3392169,0.3731169,0.1151347,0.1774332,-0.4471253,-0.7466086,-0.4880221,-0.2523071,0.1374634,-0.3611987,-0.8536100,-0.0365104,-0.5767565
0.0736477,-1.3209208,-1.7699882,0.6300931,-0.4951907,0.4858927,-1.1941413,-0.4108606,0.4196650,0.1382102,0.0892186,0.6303113,-0.5811772,-1.1881387,-0.7265174,-0.5091345,-0.2568174,-1.0416582,-0.7447258,0.0345568,-0.9480824
-0.1472687,-0.7310978,-1.4993957,0.4718353,-1.1051347,0.1939569,-1.1844203,-0.2879649,0.2098915,0.2245507,0.5584720,0.6847535,-0.9350675,-1.5174841,-0.8408334,-0.2181463,0.1818743,-0.9540076,-0.4471937,0.1284855,-0.6389391
0.1589656,-0.7440781,-1.8900007,-0.1971764,-1.2554669,0.5395727,-1.3800493,-0.7208250,-0.2990710,0.7761126,0.5794812,0.2012931,-0.7431584,-1.6960015,-1.0548024,-0.1878484,0.0961413,-1.4675448,-0.6906893,-0.0767747,-0.7713923
-0.0067174,-0.7439054,-1.5355089,-0.2494527,-1.0688434,0.9505097,-1.4670899,-1.0774198,-0.6428602,0.4754702,0.2062023,0.0129410,-0.6362182,-1.7798620,-1.4391694,-0.7839338,-0.6507304,-1.3264426,-1.1661321,-0.3072542,-0.6911262
-0.0525621,-0.4508062,-1.6005278,0.1020137,-0.9604001,0.5386448,-1.2851804,-0.8817846,-0.7135910,0.4492168,0.2124125,-0.3773816,-0.9310786,-1.9469041,-1.6282939,-1.0437738,-0.2448602,-1.2950698,-0.8745209,-0.2738275,-0.8630247
0.2372349,-0.6550727,-1.4952395,0.4328468,-0.9403580,0.4735725,-1.2053142,-0.7679191,-0.3320206,0.3621935,0.1539824,-1.1555959,-0.8264939,-1.4826301,-1.1609358,-0.5561850,-0.0341138,-0.8643714,-0.6379318,-0.3748922,-0.6854185
-0.1688937,-0.6543419,-1.5753093,0.0521513,-0.8665074,-0.1124419,-0.9108602,-0.8375278,0.1847844,0.5991824,0.1386489,-0.0589011,-0.7579212,-1.1450244,-0.3255756,-0.3946867,-0.0192770,-0.7662051,-0.3419789,-0.1318057,0.0179113
-0.1284522,-0.9774641,-1.6791705,0.5231919,-1.1890595,0.0783712,-0.6822968,-0.9258245,0.2741457,1.0471083,0.2262184,0.9811577,-0.4833896,-0.8426014,-0.2757564,0.1333483,0.7124420,0.1340228,-0.0408185,0.3563364,0.3290586
0.2088703,-1.4346565,-1.3912431,0.6654532,-0.8872871,0.0382181,-0.6803132,-0.8198324,0.2394254,1.0793960,0.5170456,-0.4921845,-0.3993141,-0.6205413,-0.4444657,-0.1481169,0.4296557,-0.0973761,0.2205851,0.3635333,-0.0668456
0.2798150,-1.1924837,-1.3539412,-0.2959873,-0.9069191,0.2427644,-1.0327598,-0.8303140,0.4157115,0.6228912,0.2221212,0.1941153,-0.6779758,-0.8339631,-0.7968965,-0.0855656,0.1436040,-0.6173184,-0.8144125,0.1826414,-0.5240890
-0.0207483,-1.4807742,-1.1631696,0.1917675,-1.2970444,0.2578592,-1.1452634,-1.0907669,-0.0586528,0.6076480,0.1519853,0.7052243,-0.8363700,-0.8218160,-0.9168974,0.1080853,0.7528625,-0.5551072,-0.4625215,0.4073196,-0.0250128
-0.1079745,-1.4247832,-1.4055189,0.4332199,-0.7234699,0.4290484,-0.8889121,-0.7913789,0.4206522,0.5634004,0.1243108,0.0683620,-0.5346802,-1.2945527,-0.2509226,0.5813172,0.7436303,-0.1443883,-0.0866200,1.0027959,0.0273251
-0.1851008,-1.5874022,-2.0233357,-0.0447296,-0.6898870,0.0380011,-1.1108167,-0.8144336,0.2043332,1.0988605,0.3673976,0.2892125,-0.3849888,-1.2778385,-0.1138356,0.3428923,0.8047779,-0.5225216,0.0446639,1.5351695,-0.1796845
-0.2958494,-1.6167769,-1.8688885,-0.2190392,-0.6719772,-0.2265747,-1.2963744,-1.1017227,0.1292804,0.9405559,0.2379764,1.0078357,-0.6302252,-1.1469554,-0.7046913,-0.3865610,0.0181604,-0.5471612,-0.5390649,0.9115446,-0.1050477
0.2301054,-1.1953671,-1.4841566,0.7814751,-0.5558263,0.4124786,-0.7552016,-0.9081105,0.5966771,1.1062685,-0.0867147,0.8118066,-0.5217050,-0.8471548,0.1405323,0.0349300,0.5611408,0.4315969,-0.4222092,0.5615523,0.1486177
0.6122004,-0.9282618,-0.6807842,1.0586144,0.0708650,1.0061780,-0.1641000,-0.4940664,0.8789983,1.7637637,-0.2619149,-0.3590327,0.1049072,0.0703045,1.3324982,0.7488162,0.9213255,0.6938719,0.5590014,0.9074039,0.8217477
0.9030550,-0.6026888,-0.2513735,0.8524734,0.1302264,0.8727558,-0.2646113,-0.5320715,0.6605818,2.0084226,-0.4748177,0.1174713,-0.1848276,-0.1557082,0.5689541,0.4680407,0.7848281,0.3284360,0.6640384,1.1502311,0.6418592
