F3,Fz,F4,Fc5,Fc1,Fc2,Fc6,T3,C3,C1,Cz,C2,C4,T4,Cp5,Cp1,Cp2,Cp6,P3,Pz,P4
-1.1083211,-0.1466901,-0.0566979,-0.4106572,0.6385202,1.0597920,-0.0764290,0.9034955,0.0115319,-0.9163668,-1.1378021,0.7640065,-0.0308179,0.5702484,-0.5115052,-0.1492208,-0.9015015,0.0876046,-0.1302664,-0.1187243,-0.1137644
-0.7369550,-0.7056048,0.1016161,0.4115047,0.5864464,1.6148515,0.1853430,0.9551788,0.1712400,-1.0141244,-1.9862821,1.0384986,0.1772123,0.8653558,-0.1450670,-0.1664378,-0.9600928,0.3753031,-0.2032157,-0.2140223,-0.1595263
0.0554653,-0.6693429,-0.6217055,0.3713433,0.3360933,0.6971259,0.0170764,0.8813710,-0.1624093,-1.0729152,-1.6735445,0.7610205,0.1145369,0.8460116,-0.2773972,-0.1760401,-0.7818291,-0.0189909,-0.0002805,-0.0562896,-0.1051692
0.7292905,-0.3430667,-0.6601534,0.2295223,1.3866291,1.0091784,-0.1387570,1.3595948,0.7684537,-0.5512111,-1.5002341,0.6881953,0.1056250,0.7385186,0.1805369,0.5653575,-0.1924685,0.2631913,0.4728124,0.3887976,-0.0771555
0.6548875,-0.5376055,-0.4713579,0.4084036,2.0039985,1.3406394,-0.1950848,1.5710812,1.3737444,0.1952438,-1.2482958,1.1675397,-0.2096695,0.3510049,0.1631687,0.7198377,-0.3523332,-0.0704525,0.6573660,0.4755795,0.2134012
-0.2370642,-0.5799564,-0.7852886,0.2684180,1.2245326,0.8100822,-0.2248453,1.3432720,0.7139065,0.1152804,-1.1689136,1.4591373,-0.2746353,0.1697897,0.1689234,0.8102812,-0.4336388,-0.0783294,0.7019213,0.4340360,0.1484908
-0.4313599,-0.2973811,-0.9437685,0.5749241,1.3595617,1.2036386,-0.0917917,1.1365091,0.7619869,0.1636159,-0.7964342,1.0920085,-0.1847338,0.2276343,0.1411832,0.9572240,0.1434442,0.2830400,0.8352052,0.6344919,0.4036583
0.1400793,-0.2009483,-0.5252107,0.7928663,0.8088127,1.0707113,-0.2587831,1.1765987,1.2262229,0.5434904,-0.3484475,1.4658051,0.1029690,0.6676880,0.2403715,0.9651241,0.2175058,0.0660222,1.0148540,1.0587877,0.4272800
-0.3152249,-0.3089280,-0.1152188,0.4886248,0.6932130,0.5141029,-0.0445699,1.1040225,1.1392950,-0.1374256,-0.8069916,1.6876270,0.1079111,0.3983148,0.6289766,1.2168059,0.6447163,0.4060425,0.6905529,1.0992597,0.6694765
-0.4312155,-0.4483977,0.1535268,0.7271823,0.7736584,0.8556731,0.1937995,1.2957605,0.9674406,0.4461036,-0.9474989,1.5855007,0.5721170,0.6209760,0.2865412,1.0753437,0.6785638,0.6586480,0.8425348,1.0605699,0.9648649
0.0828314,0.0066375,-0.2237495,0.3992160,1.2946547,1.5262268,0.1094693,1.1797005,1.1348586,0.2120469,-1.1132402,1.0364648,0.6518148,0.7625691,0.2544436,1.3373005,0.6410701,0.8461439,0.6750693,1.0329784,1.0718825
0.1588521,-0.1904363,-0.1488392,0.0301134,1.1019434,1.5745126,0.3695455,1.2704296,0.8726723,0.3931322,-1.3107628,1.4742948,0.7240735,0.8384060,0.5684853,1.1065034,0.5240026,1.0966682,0.5679340,1.3849112,1.4851964
0.1677772,0.1468528,-0.1804005,0.8726714,1.0131378,1.2764615,0.7614942,1.3519930,1.1092590,0.4949664,-1.2396492,1.3771929,1.2737310,1.1218499,0.9850941,1.5220791,1.1303916,1.6159766,1.1147901,1.4968127,1.9061862
0.0813797,0.3106062,0.4138963,0.8965383,1.1522101,1.7237471,0.7797066,1.6470957,1.4846179,0.6987293,-1.1654491,1.2028106,1.1260967,1.3272903,1.0314776,1.7002176,0.9575871,1.2788354,1.3197670,1.5550911,1.5189960
-0.0301339,-0.0946116,-0.0420731,0.5544832,1.1161047,1.4454932,0.5102907,1.4374974,1.2493078,0.4164684,-1.3535005,1.6363181,0.9863722,1.3061967,0.8446133,1.0144246,0.6626348,0.8015414,0.9204209,1.3491642,1.0414070
-0.0784850,-0.0949216,-0.6033389,0.3259462,1.0721179,1.3760566,0.2370798,1.4308805,0.8596231,-0.4815987,-1.1469861,1.4228611,0.8576250,1.1160364,0.7257233,1.0127528,0.1798901,1.0070449,1.0180634,0.9589803,1.0681112
-0.1764014,-0.2617622,-0.5353131,0.4090598,0.8768758,0.8164116,0.1689294,1.2817827,0.7015252,-0.1194025,-1.0491632,1.4109199,0.4938861,0.3849525,0.5508539,0.8079440,0.1735027,0.8317705,0.7878324,0.5887082,0.7498629
-0.3454802,-0.4094923,-0.2937693,0.7596706,0.8520327,0.7006028,0.5081781,1.4286108,0.7699187,0.1374057,-1.1812286,1.6674929,0.1811691,0.5781081,0.7567474,0.9636075,0.0093443,0.5469237,0.8624730,0.5386935,0.9344019
0.1076379,0.0523641,0.4591730,1.2858577,1.4035006,0.8348051,0.5273668,1.8374419,1.3974013,0.4495455,-1.2870446,1.6396021,0.2856169,0.9295951,1.0907835,1.3037450,-0.0992810,0.6441330,1.1708944,0.8580103,0.8604182
0.1009580,0.3816770,0.5507613,1.6805818,0.3284140,1.1499352,0.6559719,2.1119406,1.2608432,0.1666189,-1.3807821,1.2985090,0.1878991,0.7102422,1.3798698,0.8107306,-0.3453767,1.0096530,1.3071133,0.9179132,0.7780434
0.1907388,0.4592686,0.8456256,1.1082438,0.4549839,1.1248966,0.8484374,1.9716306,1.2114880,-0.1289693,-1.6472715,1.4934392,0.7578377,0.5156358,1.4444937,0.7033808,-0.0839588,1.0163854,0.7806506,0.6060836,0.7923915
0.6226847,0.0899127,0.6788343,0.9716432,0.5213957,1.8257718,1.0009453,1.8282173,1.6102684,-0.3919836,-1.5348494,1.8582677,0.6483118,0.9261869,1.4975632,1.0476880,0.0786626,1.2805638,0.6680041,0.6900588,1.1944773
0.7397284,0.0135190,0.7477780,0.8169747,0.6039115,1.5278251,1.2281567,1.8675302,1.3856990,0.0293751,-1.0593723,2.0149190,1.0709387,1.4989535,1.1148973,1.1145848,0.6063308,1.5414412,0.9315776,0.7350630,1.1747766
0.8845907,0.2090946,0.5659764,1.4264343,1.3533460,1.4254649,1.0277634,1.7120875,1.5561647,0.4293364,-0.9669897,1.6704135,1.3194463,1.4032588,1.2368436,1.0913203,0.6248633,1.2786700,1.1014768,0.6361197,0.9441386
0.8265298,-0.4416863,0.7063275,1.5987532,1.2817240,1.1924361,0.8181049,1.7008293,1.2684785,-0.0806517,-1.1108363,2.0596030,1.0836033,0.8954344,1.2593043,0.9835056,0.0492982,0.9934944,0.8788890,0.7415743,0.8355377
0.4544295,-0.6907081,0.5723531,1.0077176,0.8427040,1.2914808,0.8896081,1.7583740,1.4666419,-0.2804219,-1.2964022,1.9375277,0.8343437,1.2076145,0.9351308,1.0995764,-0.2258915,1.0282918,0.6232664,0.6092265,0.6673274
0.4120285,-0.2442922,0.1641193,1.2938625,0.3489942,1.5343199,0.8303063,1.6955987,1.5786021,-0.4636495,-1.6048040,1.0033703,0.6620266,0.7849860,1.0062138,1.1118327,-0.1105285,0.7298211,0.6036049,0.2399904,0.4375418
-0.0810098,0.1129099,0.0518271,1.0970098,1.0462276,1.5551471,0.6507344,1.6993202,1.3209245,0.1816841,-1.5752016,1.0736377,0.4849538,0.5740525,1.1527241,1.2913510,0.1210364,1.1423789,0.8804517,0.6279559,0.8351897
0.0959070,-0.3124654,0.3494948,1.5388403,1.1059753,1.3802342,1.0223645,1.6597695,1.4569093,0.4577897,-1.3786139,1.7634072,1.0126605,1.1088395,1.5250859,1.6859953,0.4972866,1.5967981,1.2232906,1.0321349,1.1855255
-0.1413582,-0.4358758,0.2202081,1.2083484,1.0477225,1.2490020,1.2060647,1.9317812,1.3113068,0.6214520,-1.2766261,1.3560686,1.4231292,1.2532871,1.6033386,1.8145022,0.6765243,1.7181504,1.3029772,1.4352766,1.3121339
0.2919530,-0.0297929,0.5711983,0.9141163,1.0659690,1.5682667,1.2181641,2.0055277,1.2839594,0.8860825,-0.9743506,1.5966904,1.9450774,1.3046179,1.4114182,1.7955554,0.9428975,1.6141163,1.1225770,1.4269745,1.2270291
0.4453076,-0.1586821,0.4944101,1.7012569,1.1392746,1.0775515,1.1291553,1.8004528,1.7231333,0.9893903,-1.1831012,2.1596081,2.3289239,1.7624273,1.6030096,1.6774875,0.9818792,2.2640631,0.9566948,1.5601400,1.6488570
0.5816341,-0.1622531,0.6984637,2.1993356,1.3209606,1.1923571,1.3226417,1.9540441,1.7191331,0.8526461,-1.3880398,1.9405512,1.9929485,2.0984423,1.8673680,1.5942819,0.6384610,1.9613584,1.3396274,1.5066420,1.5413210
0.5106835,-0.2460071,0.5925366,1.2173206,1.4332277,1.3579270,1.3150630,1.9406997,1.5905818,0.4131591,-1.3131924,1.4076287,1.5146226,1.7384696,1.4126379,1.4419081,0.4765372,1.6166993,1.1298715,1.5558960,1.5647081
-0.4737350,-0.4920069,0.1968706,0.5220660,0.8040173,1.9497333,0.6807797,1.6842268,1.5700088,0.3690103,-1.1639922,1.3856328,1.4989475,1.4987693,1.1931573,1.7597634,0.7497230,1.4383423,1.0546112,1.6269671,1.3321021
-1.2900149,-1.1177375,-0.4686984,0.1619344,0.8953984,1.4635801,0.2492961,1.5013635,1.0747632,1.0264452,-1.0440042,2.2104373,1.1964295,1.3214482,1.0167235,2.2668855,0.4692556,1.2356454,1.3765801,1.7464774,1.3279984
-0.3388260,-0.3382871,0.1387875,0.6838547,1.5249414,1.6868330,0.6700329,1.7717993,1.4997934,0.5785541,-1.0552797,1.8566759,0.8653937,1.2078462,0.9332044,1.9762911,0.1352775,1.1335962,1.0831814,1.3315389,1.1263938
0.3480026,-0.1395597,0.8707101,0.5455120,1.7528721,1.9215660,0.6695775,1.9187140,1.7987639,0.2093832,-0.9667835,1.8139595,1.1210226,1.1280721,1.0960065,1.7262492,0.3099596,1.0513390,0.8151837,1.2857363,0.9664330
0.2237534,-0.3935365,0.5229569,1.0622525,1.2165595,1.2725719,0.5324365,1.7073630,1.2374017,0.3160005,-0.9191713,2.0875437,1.0420229,1.1562387,1.4021716,1.4590582,0.1717862,0.7177624,1.0977911,1.0370646,0.8818043
1.2839072,0.0142638,0.5015954,1.5456700,1.5110359,1.3275490,0.6320980,1.8655789,1.1257589,0.1567415,-1.2672987,1.7947447,0.6248457,0.8568686,1.0623821,1.5764453,0.2398555,0.5972506,1.1478986,0.7238345,0.6788924
1.0927963,0.1091477,0.4243533,1.2758740,2.2146821,1.5657661,0.3935908,1.7636284,1.3465896,0.2286721,-1.3321915,1.6988766,0.5258447,0.5530196,1.0719934,1.6878455,0.4582321,0.4929234,1.1882814,0.9420700,0.7515066
0.9328359,-0.0435485,0.2771204,0.9112414,2.0491819,1.3352569,0.3843612,1.7858040,1.5227561,0.4909684,-1.0586741,1.9761232,0.5751065,0.6061805,0.8839427,1.4686152,0.1559756,0.2294146,0.8674065,1.2395973,0.8187602
0.5878450,-0.1920833,0.5463564,0.3256390,1.4641945,1.3776828,0.3599610,1.4979312,1.0737238,0.4629796,-1.2067717,1.6790556,0.5118814,0.5921033,0.0470524,1.2452258,0.2294447,0.2552877,0.5783921,0.8037214,0.5894552
-0.1342247,-0.2455936,0.0797730,0.4086965,1.1848341,1.8710586,0.2311536,1.1517994,0.8494846,0.0406990,-1.0072445,1.4221728,0.3287282,0.2616429,-0.2704508,0.9291198,0.0794796,0.2976119,0.2306719,0.4817202,0.2997960
-0.2173138,-0.0282430,-0.5537448,0.3893504,1.9727823,1.4368290,0.2091383,0.9513004,1.0324209,-0.2591820,-1.1945347,1.5865874,0.6115753,0.1362153,-0.0993176,0.5813639,-0.1336360,0.3008411,-0.0153868,0.8317072,0.5896471
-0.0934680,-0.0692742,-0.0502676,0.5175685,1.4420387,1.2918166,0.1218124,1.2508130,1.1090586,0.3297219,-0.9772918,1.8248861,0.7273781,0.6926785,0.0398106,0.5968602,0.2050125,0.3247778,-0.1002827,0.7374955,0.7485806
-0.1909578,0.0652748,0.1457754,0.4203584,0.8650095,1.5030041,0.2596526,1.3761477,1.2057573,0.5220125,-0.9829276,1.5621073,0.9199308,0.6336172,0.4668810,0.8540857,0.4897483,0.7081711,0.3618576,0.5627039,0.6695046
-0.8068448,-0.2253311,-0.4752961,0.4395449,1.1951280,1.5541732,-0.0663878,1.2028819,1.6021258,0.4072328,-1.1012226,1.3767292,0.6740679,0.7820742,0.4732170,0.7075915,0.1551313,0.6156788,0.2330474,0.2488801,0.5863769
-0.8640223,-0.6697958,-0.5342682,0.0012869,1.3556786,1.0257269,-0.0575781,1.1294850,1.2925773,0.3034577,-1.2605394,1.4327415,0.2229206,0.3503139,0.2893182,0.6311015,-0.2517878,0.3875604,0.2031827,0.3975813,0.5561996
-0.2711402,-0.0477920,-0.3790394,0.0759684,1.4371541,1.2778811,0.2076572,1.2933279,1.1252066,0.1009192,-1.0315518,1.0054380,0.4193308,0.1827075,0.5673240,1.0149239,0.2411737,0.6750425,0.4305727,0.6795374,0.7856932
-0.4154050,0.4101232,0.1659644,0.1091194,1.4663191,1.5011939,0.2021809,1.4295154,1.4702526,-0.1053631,-1.1910502,1.0485688,0.4086897,0.4056827,0.2531954,0.7090499,0.2355057,0.6335223,0.2971777,0.7901649,0.8721189
0.0651178,-0.1396326,0.8529448,0.0088288,1.8512185,0.9424130,0.0123113,1.4721164,1.0545313,-0.4193212,-1.3948212,1.5411650,0.5978034,0.5898485,-0.1848774,0.4517002,-0.0620992,0.3638457,0.3276370,0.3021118,0.9421015
0.2113699,-0.1654072,0.2964216,-0.2692736,2.0137637,0.6157450,-0.1632922,1.4826577,0.9368261,-0.2751973,-1.5712738,1.5734874,0.7582855,0.1390789,0.2438986,0.3163448,-0.1569324,0.1997445,0.2380763,0.5657841,1.0243223
0.0746395,0.0472690,-0.6702498,0.1069496,1.3199693,1.0308640,-0.1551706,1.2096418,0.5827301,-0.2720095,-1.4416202,1.4848716,0.6219434,0.1776626,-0.0708834,0.6261766,0.1732120,0.0838564,0.1722579,0.7630408,0.6827034
-0.3569057,-0.0781928,-0.9125297,0.4942599,1.2123488,1.0005642,-0.3281870,0.9924866,0.6865663,-0.3012682,-1.2712653,1.7473131,0.7750800,0.2334283,-0.1014289,0.9836930,0.1877736,-0.0331986,0.3069194,0.7002053,0.8103450
0.2206444,-0.5370556,-1.1164224,0.4921656,1.1751970,0.3531109,-0.2215566,1.0891560,0.7728477,-0.0251797,-1.4924698,2.0199189,0.4681724,0.0869350,0.1387400,0.8562652,-0.1071198,0.2370640,0.1204815,0.6143811,0.8215087
0.9732146,-0.3406093,-0.9656541,0.4800995,1.4595785,0.7799873,0.0896283,1.4403399,1.3514286,0.1256168,-1.2444910,1.5588273,0.2659218,0.2674577,0.5583664,0.9584401,0.1815385,0.6299117,0.5582185,0.4880004,0.8966506
0.9948563,-0.0624500,-0.2296705,1.0006074,1.4147776,0.9303766,0.1330969,1.4918109,1.8748418,0.5518808,-1.4486437,1.5952392,0.7487752,0.4714440,1.1227772,1.3215039,0.1606969,0.8115361,1.0451874,0.8172815,0.8375419
1.1790154,-0.1627442,-0.0691560,1.4799988,1.7529210,1.1760976,0.6524153,1.7238340,1.8157762,1.3339691,-1.3318623,1.7168634,1.1171446,0.5564355,1.2798761,1.3117815,0.6118510,1.2618468,1.5983889,1.2431620,1.0602257
1.6577375,-0.0370638,-0.0462440,1.8654511,1.8557072,1.1783154,0.8969989,1.9986687,2.1772096,1.7488983,-1.1410770,1.7882499,1.6532323,1.0812448,1.7557123,1.5004467,1.0113862,1.2515396,1.6988592,1.6050193,1.4312012
1.4241265,0.4342202,-0.1885551,1.4277406,2.1921523,0.5542139,0.9791144,2.1386948,2.3712478,1.4087114,-0.8024632,1.8435618,1.6290420,1.1690032,1.7343718,1.8098708,1.1277496,1.1978087,1.8314639,1.9869674,1.4423414
0.5908173,-0.2665065,0.0517084,0.6444076,1.4789078,0.8451842,0.7773148,2.0431523,2.2081037,1.2283531,-0.6389771,2.0117519,1.4961461,1.0867941,1.7882366,2.1652734,1.3038179,1.3156279,1.8475119,1.7413833,1.5681781
0.2344584,-0.4144950,-0.5747958,0.6443321,1.4895267,1.1320939,0.4079606,1.9589322,2.0259228,0.7631362,-0.7577454,1.9870256,1.3231835,0.8307008,1.7713677,1.9245962,1.3304831,1.1892066,1.7029768,1.5399665,1.4525013
0.2638713,-0.0661931,-0.2907459,1.0223483,2.0330434,1.3093892,0.3326368,2.0480874,1.9120858,0.8159511,-0.7834498,1.8212286,1.4521462,0.8214368,1.7058822,1.9304328,0.9448321,0.8818449,1.5697539,2.3351996,1.2766572
0.1923436,-0.2273054,-0.0471610,1.3531206,1.8236264,0.9389747,0.5256863,1.9020528,2.1044221,2.1165044,-0.7750212,1.8667890,1.2286164,0.8951011,1.6338286,1.8113787,1.1165735,1.0421236,1.2328449,1.8162611,1.0812469
-0.0549490,-0.7807195,0.4903808,1.3228883,1.8210630,0.9593491,0.6860933,1.7617235,1.6064590,1.5536600,-0.9441532,2.0497336,1.1137309,1.1590816,1.4536997,1.6281493,0.5896255,0.9153906,1.0102092,1.3866940,1.0078570
-0.2653404,-0.2780364,-0.2846629,1.2956055,1.5220002,0.8186651,0.5002257,1.8420683,1.8255697,1.4245088,-0.5651536,1.5529045,1.0890795,0.7822137,1.5190696,1.6005040,0.7981809,0.4107037,1.3238741,1.4519693,0.8014295
-0.5031299,-0.0558008,-0.6914622,1.0631957,0.7744965,0.9571708,0.1557304,1.7485014,1.9824277,1.0088518,-0.4208873,1.8627740,0.9766121,0.4876100,1.1541405,1.7754781,0.7179396,0.4317336,1.1858485,1.4761596,0.8434975
-0.5279259,-0.4859186,-0.1359147,0.3963250,0.6521796,1.0856690,0.2300626,1.7076088,1.6820002,0.5018907,-0.5641221,2.0209584,0.9405069,0.4470865,0.9235168,1.7871715,0.8633925,0.6609079,1.0046682,1.0434750,0.9778664
-0.4110012,-0.6235589,0.0247606,0.6636462,0.7937974,1.0499347,0.4556219,1.8185490,1.4611108,1.3345644,-0.2186108,1.9112679,1.2252741,0.5941293,1.3231226,1.7975062,1.2688119,0.6805654,1.0558813,1.2670279,1.1714417
-0.9150609,-0.6242912,-0.5291106,0.5930346,0.8387682,1.1217686,0.6784535,1.6551492,1.2262173,1.3011882,-0.1922400,1.8924924,1.4305401,0.6585385,1.1923999,2.0728555,1.2966031,0.9182482,0.9902210,1.5941621,1.0246118
-0.8065464,-1.0343363,-0.8021954,-0.0486448,0.5100327,1.4299403,0.6929597,1.5980978,1.1079719,0.9111744,-0.5672811,2.5804427,1.3457665,0.7806544,0.9557461,1.9701327,1.7658062,0.9661747,0.9943048,1.7703798,1.3239186
-1.0677353,-1.2742294,-0.8019761,0.0437879,0.3227227,0.8309029,0.4165942,1.5006433,1.1312149,0.8846581,-0.1560782,2.5956025,1.3143785,0.8757883,1.2591779,2.0156264,1.9098581,1.2525090,1.1787475,1.6884700,1.3485250
-1.4173847,-0.7386634,-0.6353360,0.2341129,0.6532380,1.3161573,0.3753871,1.6382821,1.5398542,1.2147976,-0.0182340,2.2065439,1.9252248,1.0067990,1.8062069,1.8019128,1.7181298,1.1749322,1.2623758,1.9580443,1.4306847
-1.1505307,-1.0657135,-1.1644857,-0.0102489,0.7449390,1.3081521,0.3071173,1.7659239,1.8512927,1.5047768,0.1453599,2.6756463,1.5968124,0.8090634,1.3339052,1.9464853,1.3289876,0.6966987,1.0101738,2.0510747,1.3599244
-1.6531947,-1.1206169,-2.1088915,-0.0117023,0.3613048,0.6807896,0.0809003,1.5572790,1.1887251,1.3888134,0.2774435,2.5535939,1.2852091,0.3322794,0.8524668,1.8134356,1.3714088,0.6104743,0.8270283,1.5961519,1.0866815
-1.6051394,-0.7916124,-2.2733667,0.3179891,0.2618241,0.4130450,-0.1421999,1.3506088,1.0437316,1.2005609,0.0593689,1.6348122,0.8458756,0.0929214,0.7347385,1.3689412,0.9992274,0.2597698,0.8792737,1.4189996,1.0419015
-1.6223609,-1.6034678,-1.9158806,0.0059921,0.6386344,0.5442445,-0.3075241,1.2210482,0.9082059,1.0907749,-0.2447072,1.6601714,0.8041761,-0.0251691,0.9029905,1.3337568,0.7539699,0.0616511,0.9103940,1.4394336,0.9211063
-1.7487087,-1.7831548,-2.0637813,-0.3499930,0.2223640,0.4180458,-0.5986144,1.1070302,1.0800089,1.3812319,-0.3716738,2.2173452,0.7915416,0.0888278,0.8601872,1.3273464,0.6203407,0.2566373,0.8469653,1.1119559,0.7656214
-1.4563942,-1.6216923,-2.1299744,-0.3729548,0.0844375,0.0687257,-0.8383445,1.2416476,1.3105783,0.8897706,-0.3988377,2.0995841,0.2333485,0.0670858,0.8387428,1.0869288,0.5949521,0.3273311,0.6286719,1.0234880,0.9533133
-1.5442796,-1.3362825,-2.1336424,-0.6916962,0.5041894,0.6157098,-0.7373583,1.1368272,1.0131880,0.4091527,-0.3058556,1.7125342,0.0409073,-0.1272330,0.5554931,0.8691702,0.7954116,0.0268788,0.5921839,1.1246835,0.9671612
-1.1604670,-0.9617755,-1.7164929,-1.0006787,0.5528199,0.4177370,-0.6988577,0.9561742,0.9288454,0.3488543,-0.4663167,1.9876741,-0.1664650,-0.2386844,0.7793423,0.9241386,0.1027602,-0.3303213,0.6893807,0.6526961,0.5992758
-0.4880384,-0.9992346,-1.8152808,-0.2294212,0.6903938,0.3865183,-0.7604828,1.0276723,0.8571392,-0.2357197,-0.6589131,1.6280726,-0.1059226,-0.6766229,1.0120566,0.9491954,-0.3137078,-0.6732007,0.7570262,0.3034374,0.6264161
-0.0375061,-0.5916853,-1.6969067,0.7314259,1.1386077,0.4257285,-1.1150098,1.3481133,0.8703369,-0.1950267,-0.6374688,1.4164464,-0.5008475,-0.9811212,1.0254973,1.0039159,0.0839762,-0.5759740,0.3751349,0.0017243,0.2857645
-0.1078522,-0.2004329,-1.0376865,0.5559800,0.8635749,0.8025201,-0.4972345,1.4413455,1.0757424,0.2994745,-0.7226127,1.6444505,-0.2137436,-0.6160876,1.2108548,1.0179774,0.0891591,-0.1448673,0.2748735,0.4320304,0.3615171
0.1311294,-0.2837155,-0.4537499,0.8096879,0.1433232,0.5061114,-0.3424692,1.4633877,1.3144976,-0.2826449,-0.7929320,1.7068274,0.2706310,-0.3409515,1.4305972,1.0802796,-0.0132725,-0.2420869,0.6621655,0.4590913,0.3280056
1.0091641,0.1705935,-0.4992492,0.5859970,0.9896122,0.5098856,-0.1765671,1.6403246,1.2892927,-0.5194960,-0.7753228,1.1980433,0.4639782,-0.0531885,1.4121009,0.8069757,0.0741938,0.1559245,0.5102292,0.4439951,0.5336775
1.8280728,0.2537339,-0.0164463,0.6782020,1.3393807,1.0184330,0.3336102,1.5338510,1.2530023,0.1987421,-0.7300570,1.2448924,0.7698570,0.3817437,0.5364949,0.3505429,0.1117691,-0.3381490,0.2340493,0.1887233,0.4709881
1.6354182,0.1238163,0.5098550,0.0099094,0.9440408,0.7739212,0.3954851,1.1108774,0.9638445,0.0845921,-0.9384995,1.4647998,0.2783685,-0.0359787,0.5545821,0.3891424,-0.3960888,-0.5566508,0.1968843,0.2742812,0.2167717
1.6222745,1.2472676,1.1683252,0.1096123,1.1123825,0.8813411,0.6952190,1.1555849,0.4524412,-0.7207872,-1.0574362,0.8649368,0.2211286,-0.0023956,0.1975170,-0.0230247,-0.9745105,-0.2576456,-0.0766286,-0.1204803,-0.1398385
2.4084105,1.3212285,1.4211258,0.4742477,1.2342070,0.6651897,0.6169599,1.1438143,0.1700570,-0.7644804,-1.0400355,0.6711042,0.2002106,-0.1292942,-0.0345232,-0.0192713,-0.7735222,-0.2771243,-0.4508710,0.0612321,-0.0789360
2.7899156,1.0239236,1.4497006,0.8332141,1.1843973,0.8039252,0.6832401,1.2250036,0.6186505,-0.6989009,-0.9416055,1.4173104,0.1504294,-0.0913822,0.0908030,0.1856073,0.0333019,-0.4361437,-0.2826471,0.0748861,0.0984278
2.3489976,0.7152762,1.3710574,0.6796315,0.5319302,1.0678302,0.7664344,1.3176764,0.7062510,-0.6288214,-0.7307823,1.5463839,0.3729706,0.4581536,-0.0057399,0.2496718,-0.0879206,-0.4669688,-0.1754956,0.3849640,0.2807681
2.4779475,0.6843944,1.5604516,0.4299074,0.7033287,1.0419993,0.8875621,1.0576187,0.4580470,-0.3717359,-1.0215745,1.1980885,0.2948444,0.5726974,0.0848445,0.0888540,-0.3297781,-0.4386168,-0.2790072,0.3260628,0.2673231
2.6246741,0.7651645,1.7126455,0.2223657,0.9646871,0.8300384,0.7156582,0.9298339,0.4155985,-0.4246476,-1.1582197,1.3640597,0.4114090,0.4684966,0.1828812,0.5555720,-0.1881191,-0.5443662,-0.2077261,0.1541037,0.3789463
2.6471174,0.8413370,1.2030905,0.3563451,1.0695448,0.5198932,0.7186511,1.0071759,0.4280353,-0.2728415,-0.8804882,1.2686654,0.2539917,0.3100863,0.4479888,0.4168780,-0.2635055,-0.4714052,-0.1639474,0.2744346,0.2553565
2.3577309,1.2456350,1.2302356,0.0876048,1.1170645,0.9312243,0.5308222,1.0777147,0.3082352,-0.7709130,-1.0459973,0.8598112,0.0414558,0.1734292,0.2152638,0.4233293,-0.3604064,-0.3735598,-0.3140585,0.3175384,0.0820365
2.1746159,0.9413813,1.6714506,-0.0903333,1.6093041,0.8302227,0.4848064,0.8316662,0.2620211,-0.6762764,-0.9796252,1.2885959,-0.0499339,0.2143171,0.0570776,0.2246787,-0.0825076,-0.2915590,-0.3130824,0.3623794,0.2097280
1.5478971,0.8586175,2.0706151,-0.3000958,1.2440635,1.2459623,0.7744244,0.8035032,0.2688437,-0.8013271,-1.2796955,1.8152096,0.4492423,0.3469464,0.1573489,0.2278457,-0.1304761,-0.3098421,-0.2159179,0.0459103,0.4210730
2.2380147,0.8946655,1.6008142,0.2691737,1.0319192,0.8124855,0.7773086,1.1852119,0.2633461,-0.6702342,-1.1378086,1.1206362,0.3245361,0.4133884,0.3114490,0.6617055,-0.0431462,-0.2650912,0.1564738,0.4354407,0.4077591
2.5374160,1.5919950,1.3300700,0.3917853,1.5366346,0.5527033,0.7693299,0.9117253,0.3168388,-0.5076714,-1.1601014,1.1198519,0.0099595,0.0932902,0.3432289,0.2546712,-0.3427607,-0.4055908,0.3569083,0.4041620,0.3071915
2.3190577,1.3992530,1.5979048,0.4697096,1.2664481,0.8978863,0.8230063,0.8606917,0.4320689,-0.1727561,-1.0211773,1.6368548,0.3447761,0.2317822,0.2180652,0.3229105,-0.0473335,0.1013119,-0.0760136,0.4646328,0.4017671
2.5120959,0.8114262,1.8746990,0.6148488,0.7843674,1.2001889,0.8801184,1.0022047,0.2710059,-0.2938374,-1.0604789,1.3922145,0.3781223,0.5738676,0.0107207,0.1384522,-0.0848371,0.1401625,-0.2213703,0.1162248,0.3107261
2.5902784,0.9638268,2.1354933,0.9277794,1.4956170,1.2909366,0.7644911,0.9307830,0.3343005,-0.1569425,-1.0835516,1.0874909,0.7097293,0.4920200,0.1901509,0.1696414,0.1305384,0.0767041,-0.3713777,-0.0301134,0.1755214
1.8410158,0.8164988,1.5264502,0.2563950,1.1229020,1.1329296,0.7962641,0.7626995,0.3116952,0.2651129,-1.3449248,1.4659966,0.3924329,0.3771566,0.3648760,0.0166302,-0.3263029,-0.1498911,-0.4245685,0.2222418,0.0618090
1.8047667,0.9002540,1.6124758,-0.0644282,1.0742148,1.0127566,0.6780341,0.9846312,0.1658703,0.0955785,-1.3768169,1.5951331,0.3396417,0.4845294,0.2654522,-0.0727462,-0.6698608,-0.5642369,-0.2658538,0.0236243,-0.0341777
1.8320733,0.9768206,1.6370296,0.3718732,1.4747723,1.0654027,0.4758202,1.1857684,0.5628400,-0.6501781,-1.2135954,0.6274136,0.4654707,0.5342671,-0.1992114,-0.2769244,-0.4758214,-0.2981335,-0.1205512,-0.1399858,0.0235129
1.7338926,0.9366891,1.4544785,0.2734056,1.0378301,0.7123023,0.4648562,0.7679216,0.3174986,-0.8504075,-1.3830000,0.7943798,0.2384410,0.4766371,-0.0916072,-0.3118801,-0.2482792,-0.1920974,-0.3997108,-0.1097881,0.2086239
1.3394288,0.4985643,1.8428644,0.4931554,0.5903791,0.7962711,0.7174020,0.8126451,0.2570239,-0.4786655,-1.4185861,1.2581738,0.3316199,0.3745696,0.2176202,0.0772117,-0.0684685,0.2003040,-0.1829910,0.0864268,0.4592116
2.1597531,0.9425177,1.5702363,0.8415931,1.1172262,0.6194434,0.7580514,1.1249868,0.6291261,0.2945585,-1.1416708,1.2413899,0.5740506,0.4550750,0.4701970,0.4873078,-0.0815274,0.3181883,-0.1970361,0.2564667,0.5446606
2.5548790,0.8986042,1.4861343,1.2236640,1.1627587,0.7949854,0.7239875,1.7813402,1.0448844,0.7066359,-0.9202898,1.2567872,0.5333881,0.4748876,0.7036617,0.6119616,0.1773011,0.2423278,0.1527843,0.7509261,0.7134011
1.9506258,0.7355939,1.1332773,0.5923746,0.8945382,0.9267983,0.8482700,1.5439122,0.9942287,1.1719718,-0.8228731,1.4725295,0.5973678,0.6195333,0.8373985,0.5375644,0.5110275,0.1654836,0.2514879,0.9308962,0.4862108
1.4711360,0.2175220,0.9163222,0.6662520,0.7910361,0.8061918,0.6585046,1.2988797,0.5223169,0.2907401,-0.6834476,1.3423065,0.5023164,0.3871838,0.7428584,0.4702846,0.1699159,0.1154289,0.3244158,0.5571611,0.4040428
1.2865759,0.3318373,0.7287104,0.8500639,1.4037259,0.7868015,0.4364663,1.2095598,0.6348088,0.3930692,-0.4148904,1.3191477,0.6321493,0.3261906,0.7628660,0.7406875,0.4488151,-0.0494514,-0.0039068,0.4272934,0.3995437
0.9510311,0.2222262,0.5943592,0.2959590,1.6132703,0.7548866,0.4466179,1.0236425,0.5830493,0.1780142,-0.3117161,1.6791387,0.5284592,0.3218545,0.7434227,0.9652839,0.6246781,-0.0736004,0.3935478,0.4842986,0.4199264
0.6711704,0.3615559,0.8255279,-0.0833500,1.3174214,0.3600536,0.5931820,1.1064044,0.5994566,0.5511574,-0.3160183,1.5073124,0.8425522,0.4449064,0.8473222,0.9222468,0.3865861,0.0184676,0.4965871,0.5571812,0.4851562
0.7884499,0.3294658,0.5781983,0.6269757,0.7683225,0.4899834,0.6849250,1.1927266,0.5560147,0.8086287,-0.3512534,1.0725025,0.7011747,0.5768723,0.9445580,0.7997969,0.1857648,-0.0620238,0.5501440,0.6522419,0.3967460
0.4265359,0.1664900,0.2431570,0.7090832,0.6944556,0.8299549,0.6305737,1.0183666,0.6014901,0.8031670,-0.0962862,1.3534681,0.5845937,0.4410438,1.1125661,0.9024166,0.2273686,-0.1791709,0.5744659,0.7151086,0.6673215
0.8442792,0.0803489,0.2922949,0.9482390,0.9137856,0.6330096,0.4721508,0.8241075,0.9707132,0.6943046,-0.3892637,1.6663684,0.7626194,0.7642115,1.5291746,0.9369168,0.6188774,0.2037612,0.5629991,1.1166320,1.0364836
0.5998287,0.3185943,0.6890821,1.1455917,1.3517370,0.6882086,1.0126723,1.4453398,1.2552776,1.2488165,-0.2954208,1.2791752,0.9501671,0.8638661,1.7047737,1.6265035,0.7766387,0.4192669,0.8063931,1.1616052,1.1723294
0.6243019,0.3257892,0.3577505,1.1160706,1.7282001,0.4906705,0.9145693,1.5305065,1.1606449,1.1883460,-0.0366767,1.0274717,0.9742103,1.0599800,1.5843643,1.8272574,1.1654770,0.5757043,1.0829030,1.2745756,1.1130898
0.3269928,0.0606994,0.3481423,0.7126133,0.9394466,0.8562095,0.8590873,1.1580724,0.9199812,1.1633450,-0.1076382,1.4616044,1.1423577,1.0691493,0.9624133,1.1831934,0.6355563,0.5377959,0.8199484,0.8501814,0.9818593
0.0725667,0.0549453,0.0240168,-0.0909836,1.2237022,0.7159889,1.1710823,1.0843822,0.6682171,0.3304398,-0.3859597,1.4027795,1.0438370,1.1334101,1.0111032,0.9777185,0.2920294,0.2917427,0.5981562,0.5479413,0.6886928
-0.3992856,-0.0023579,0.1227542,-0.3720513,1.0910853,0.4533654,0.7954988,0.9886450,0.2720741,0.0968479,-0.4447852,0.8627526,1.2523444,0.8785561,0.7764713,0.8961242,0.3777494,0.2854600,0.4142000,0.5889657,0.4622591
0.1417904,-0.4113710,0.5034964,-0.1517460,0.7327365,1.3572040,0.8623016,1.0943073,0.2072972,-0.0397073,-0.1884559,1.0086250,0.9296524,0.7601340,0.8207219,1.0603122,0.3065281,0.5986992,0.2430507,0.7750754,0.8525495
-0.0740563,-0.3083049,0.2715676,0.0779124,0.9447045,1.2433709,1.2929074,1.2499125,0.6429275,-0.0114433,-0.6192887,1.1103207,0.9772986,0.8513353,1.0457581,1.3125286,0.5403042,0.8284095,0.5777366,0.7614537,1.0980345
0.3897284,-0.0452862,0.4182324,0.2354772,1.2012789,1.1750896,1.1908208,1.1673757,1.0338773,0.5124068,-0.4246905,0.8341860,1.1040974,0.9135424,1.3849490,1.5610433,1.0380787,0.9563083,0.7957289,1.2162553,1.2350403
-0.0488962,-0.3622569,0.5062684,0.7311338,0.8831311,1.1337129,1.1704812,1.2248846,1.2429519,0.8162724,0.0339620,0.8664674,1.2731476,1.2954905,1.1709034,1.3322469,1.0160147,0.8596713,1.1067127,1.1281732,1.2817583
0.3161295,-0.2265748,1.1202204,0.9644477,0.7279944,1.0133458,1.3631821,1.2273954,0.9229245,0.8507760,-0.4857522,1.1652658,1.1452132,1.3595449,1.3684926,1.5340445,0.5805666,1.1756750,0.7943090,1.3262995,1.3934982
0.6731638,0.1356544,1.0890523,0.5389470,1.1758516,0.5141359,1.2052665,1.3748541,0.8027824,0.5689217,-0.5512087,1.2810625,1.3590283,1.6204543,1.3318945,1.6501391,0.5269206,1.3564285,0.9825179,1.4442055,1.2387923
0.4382204,-0.0431006,1.1064106,0.1849715,1.0894083,0.9550045,0.9310868,1.3363726,0.7148688,0.6296543,-0.4126263,0.8166662,1.4640461,1.3550268,0.7799541,1.3917750,0.5489813,0.9185870,0.9074411,1.2507088,1.1755966
-0.0845083,-0.1141314,0.6182852,0.4372000,0.9632658,1.4354614,1.1340092,1.3261098,0.4104761,0.4585524,-0.6026124,1.3015130,1.3073518,1.0802894,0.9202599,1.4338766,0.4568273,0.7903693,0.6847777,1.2090132,0.9784150
0.0857598,0.1271609,0.7913819,0.5033252,1.1240395,0.8651966,1.2429956,1.0993395,0.6647874,0.1865309,-0.3190132,1.5531853,1.3988475,0.9600108,0.9500008,1.6927083,0.7993127,0.8321354,0.6120891,1.1868020,0.7823290
-0.0090833,0.0971459,0.7234661,-0.0610811,1.0595131,0.6783670,0.7811759,0.9469482,0.6956021,0.4106235,-0.2531492,1.3058488,1.3150553,0.7301641,0.8815628,1.3433285,0.8096732,0.4992816,0.4578887,1.0958105,0.6289492
-0.2948640,-0.0336213,0.2778906,-0.4951371,1.3504156,0.7791015,0.7473935,0.6051691,0.0995949,0.4335790,-0.1126189,1.4689711,0.7623197,0.5557682,0.6039673,1.1446160,0.2702242,-0.0994168,0.1435039,0.7750368,0.4282612
-0.4842092,-0.0172244,0.1252649,-0.3239956,1.3594270,0.5018554,0.6288112,0.5924430,0.0277507,0.3882802,-0.0508578,1.3723813,0.3014040,0.2419247,0.5452181,1.1477865,0.5374864,0.3795136,0.2883504,0.9137966,0.6990218
0.1648381,-0.3693117,-0.4806165,0.0536514,1.2481439,0.3331026,0.1960277,0.9699709,0.2787620,0.5235759,-0.1031623,1.3143783,0.5562068,0.3065246,0.7108739,1.3420423,1.0442481,0.5351802,0.6726039,0.9649984,0.8405657
-0.1118661,-0.4846405,-0.7706527,-0.2912604,1.4893134,0.7164168,0.2420674,0.9690577,0.5366435,1.2610214,0.3806500,1.2747986,0.6858340,0.5885051,1.0210612,1.8403107,0.8431036,0.4635934,0.6371663,1.1092434,0.8944691
-0.1984538,-0.3825125,-0.8656555,-0.0565590,1.2280023,0.6470581,0.7692240,0.9447554,0.7371597,0.8730591,0.3746107,1.7190557,1.0744425,0.7062222,1.2932078,1.7985603,0.8100446,0.9926576,0.7486105,1.4544209,1.1293695
0.7671211,0.1671516,-0.0899248,0.7894958,0.8912155,1.2237777,0.6703301,1.1161505,0.5940878,0.9384241,0.3464334,1.1935598,1.1223866,1.1899376,1.7725018,1.6945302,0.9931327,1.2219359,1.0550755,1.6491636,1.4446312
0.7456529,0.4598355,0.3112891,1.0931268,1.4852757,1.3911850,0.7889996,1.2568952,0.7338521,0.9005810,-0.0026200,0.5779268,1.1796317,1.3412162,1.8849635,2.0346229,0.8844161,1.0972117,1.2866166,1.6822566,1.4532348
1.3426468,0.2424029,0.7613232,0.7293357,1.6600077,1.6761903,1.3675181,1.3824096,1.3681718,0.6712649,-0.4894851,1.3704737,1.1660242,1.1514258,1.6640090,1.5949149,0.6245728,1.0755810,1.0478878,1.4821875,1.0452069
1.3724167,0.4909868,0.7490019,1.2600976,2.0931747,1.7928574,1.3591807,1.7677838,1.2321813,1.0060259,-0.4721442,1.2236407,0.9508741,1.2387292,1.5540119,1.5820431,0.7450674,1.2663764,1.1263331,1.2459352,1.1902286
1.3461895,0.5795459,1.3600703,1.1090175,2.1259694,1.1760082,1.0487584,1.4931343,0.8972337,0.9850215,0.0880406,1.3837790,1.3432099,1.2520914,1.7048285,1.9861349,1.3586304,1.5129030,1.1865762,1.7393558,1.2652675
0.6002291,0.4142058,1.4447057,0.7612146,1.6780487,1.3918316,1.1324207,1.1703181,1.0875145,1.2647551,0.3211264,1.5988325,1.5490924,1.2704382,1.5094316,1.8930537,1.5542740,1.4769778,1.1063722,1.7509272,1.2989088
0.1545463,0.1766289,1.0635502,0.9882042,1.5000622,1.3065377,1.0712597,1.2113600,0.8852422,1.4934388,0.4903394,1.4546546,0.8383154,1.1386141,1.4370373,1.8785509,1.1727324,1.2764906,1.1530010,1.6563339,1.4196583
0.4037862,0.5868149,1.1991580,1.4000145,1.5777400,0.7465227,1.1073595,1.3693634,1.1087933,1.0212126,0.3145499,0.9673199,1.4031438,1.1168088,1.6931543,1.8132070,0.9991458,1.3686593,1.0576141,1.4892231,1.5083116
0.3349934,1.2001557,0.9685475,0.8752654,1.5386378,1.0194168,1.3580775,1.4169300,0.3583378,0.9389684,0.0742551,1.0103810,1.3868855,1.5454113,1.5460863,1.5496418,1.0037878,1.3368491,0.7268206,1.3676285,1.3144573
0.4280836,0.9292251,0.6535338,0.7403548,0.8569569,0.8807148,1.4111376,1.1324455,0.1612055,0.6061769,-0.5249607,1.3332161,0.9466919,1.3902369,1.0505462,1.3128594,1.0221168,1.1933572,0.7531134,1.2937610,1.2831424
0.5188131,0.8421550,0.5560666,1.0367533,1.3570144,1.0202804,1.2746688,1.2155478,0.7152714,0.2658187,-0.6209183,1.2338153,0.9398030,1.2508523,1.2592074,1.1260704,1.0823170,1.4136827,0.7943629,1.0870434,1.3859457
1.0686780,1.0954418,0.7629725,1.1776451,1.7808179,1.4918371,1.1995411,1.5102292,0.9076271,0.7734383,-0.2550826,1.4409971,1.4816556,1.4094726,1.1037639,1.6690056,1.3077141,1.1762654,0.8500940,1.4979129,1.4442869
1.2952449,0.9847388,0.8569049,1.1407570,1.5140095,1.5130206,1.3447298,1.4426044,0.8430135,1.0640785,-0.0434400,1.9808762,1.3387691,1.2188101,1.1716452,1.4301240,0.7834563,1.0380039,0.7613328,1.4632311,1.3868769
1.1646270,1.1738548,0.6825842,1.1726590,1.0030937,1.1080329,1.2077564,1.1311879,0.8863518,0.2518856,-0.2520839,1.4584459,1.1750194,1.2103939,1.4350922,1.3151096,0.7968496,1.2973887,0.7553878,1.2913975,1.3861059
1.6451666,1.1017125,1.0692755,1.8391773,1.5664779,0.9984489,1.6648203,1.4773316,1.1412951,0.5528638,-0.1619283,1.2088265,1.2829001,1.6612248,1.8308946,1.7367846,1.0982082,1.5625936,1.3451927,1.5437121,1.6711946
1.4872851,0.9422243,1.6517143,1.3721833,1.3424220,1.5297267,1.7232040,1.5714706,1.3459724,1.2260859,0.1355356,1.2993758,1.5929538,1.9349080,1.6569790,1.5585158,0.8699820,1.7584335,1.0477200,1.9669603,1.8558841
1.1123888,0.2392943,1.6133319,0.6820728,1.5227556,1.2142148,1.2459590,1.5662974,1.0687547,1.0330527,-0.0872598,1.4692336,1.4213682,1.6070786,1.4032524,1.5265057,0.6527781,1.4845281,1.2084885,1.7745335,1.5729884
0.5976995,0.3582825,0.9438205,0.7606497,0.9558013,1.5695423,1.1545677,1.5781785,0.5702001,0.7056907,-0.0925646,1.4871888,1.3318750,1.3364446,0.9250875,1.6277754,0.8570357,1.2583818,1.0631835,1.4570570,1.7230355
0.5527278,0.3492682,0.7790430,0.4159054,0.8615282,1.7737111,1.2474540,1.1626977,-0.1837422,0.2465880,-0.3005682,1.6041582,1.1800092,1.3922017,0.8924851,1.3299869,0.7459481,0.9793032,0.7805405,1.3016239,1.5532010
0.0485994,-0.1139698,0.7246474,-0.2434154,0.9145231,1.1157900,1.2123305,0.6675595,-0.0564365,0.6010841,-0.4016829,1.7507637,1.2226781,1.0825694,0.5931304,0.7392922,0.5297275,1.0793372,0.7699376,1.2239766,1.4005188
-0.2978548,-0.1678226,0.3619913,-1.0038725,0.6709273,1.4137433,0.9295415,0.6888373,-0.2078697,0.3727017,-0.3056264,1.4206347,1.0565180,0.7102486,0.2799377,0.3807023,0.7519597,0.9390456,0.1526502,0.9077860,1.0120915
-0.1624086,-0.4122418,-0.0000889,-1.1880789,0.4087478,1.6602980,0.5545877,0.4236285,-0.8095919,-0.6306862,-0.3351745,1.1108111,0.8974417,0.5964050,-0.2358374,0.3524598,0.5981365,0.4053495,-0.3600691,0.4202726,0.6924844
-0.6698775,-0.5190443,0.1884259,-1.5339004,0.4698550,1.3250070,0.4830069,0.1996170,-0.8989658,-0.3677542,-0.3294325,1.4375473,1.0944715,0.5228803,-0.1441005,0.3013232,0.1486050,0.5504498,-0.5145808,0.5355122,0.8667111
-0.8787178,-0.0631548,0.1439388,-1.3855408,0.2848991,1.3329152,0.8917734,0.3556305,-0.6521061,-0.0938037,-0.4753174,1.7113266,0.8301075,0.6677910,-0.0720508,0.0163538,0.0764622,0.6827554,-0.1129901,0.2954712,0.9403113
-0.9570742,0.0090906,0.3720766,-1.2220696,-0.0166000,1.3129250,0.7320518,0.2431043,-0.8302386,-0.4364834,-0.8184150,0.8068855,0.6716868,0.6249367,0.0707098,-0.1621504,0.4567548,0.6540977,-0.0416126,0.3147887,0.7997610
-0.8473195,-0.3227700,0.3207456,-0.5917473,1.1594632,1.0913427,0.5886750,0.2718037,-0.5677704,-0.3907607,-0.8113121,0.3236190,0.8464319,0.7577769,0.4813973,0.2608271,0.4861205,0.5277115,-0.0477772,0.5369357,0.8773984
-0.1401005,-0.1950733,-0.4391525,-0.5088277,0.7934377,0.5673596,0.3179485,0.6323475,-0.4809194,-0.4560029,-0.6313518,0.5840960,1.0161911,0.6835554,0.5717001,0.4295969,0.2604473,0.8148824,0.1114470,0.8277814,0.8319888
-0.0550658,0.0388136,-0.4856241,-0.1049150,0.4034866,0.5243064,0.2612782,0.7942514,-0.4635961,-0.3393430,-0.3288503,0.2479890,0.6587754,0.2638611,0.6764518,0.5128725,0.3216157,0.5833544,0.6158574,0.9060611,0.9430186
-0.9117200,-0.5921708,-0.7185416,-0.0098094,0.5260953,1.0070031,0.0152065,0.7391834,-0.0835242,0.2744208,-0.0268797,0.7397141,0.3781865,0.3286276,0.5773163,0.8865355,0.3952995,0.4567533,0.4840940,0.9297705,1.1896150
-0.7034162,-0.6827732,-0.1832632,-0.0854991,0.3495412,1.0025260,0.1243619,0.6071334,-0.5282328,-0.4607345,0.0252752,0.8165071,0.2890588,0.4399152,0.7688529,0.5935075,0.1760404,0.7333834,0.3758619,1.0529231,1.2045814
-0.6776586,-0.7008330,-0.4323198,0.4095161,0.4941387,0.9531333,0.4227420,0.7581548,-0.4551049,-0.1734636,-0.4025007,0.9269505,0.4251339,0.2695716,0.9817230,0.4720114,0.2297385,0.9832973,0.5582826,1.0091275,1.1736866
-0.3446537,-0.1882991,0.4865212,-0.0213758,0.9835362,1.0975080,0.4554704,1.0502917,0.0851818,0.4794221,-0.7069972,0.7682046,0.2974266,0.6408272,0.7410239,0.7406744,0.0087013,0.7315615,0.4912391,0.8413534,0.9793934
-0.4515583,-0.2290775,0.3686822,0.1122479,0.8129065,1.0287564,0.4602282,1.0998975,0.0473876,0.0366635,-0.6115211,0.8634410,0.2445053,1.0584322,0.8852518,0.6412504,0.0393317,0.8514853,0.6254905,0.9663332,1.2166172
-0.6190765,0.1358182,-0.0459281,0.1281734,0.4022097,1.2509676,0.7482204,1.1041678,-0.2664750,-0.2623694,-0.8489768,1.0288616,0.7883760,0.8945675,0.9373536,0.6799264,0.2191416,1.1933444,0.7022296,1.0658603,1.2438099
-0.5772465,0.1884309,0.3817265,0.0989017,0.8777130,0.9189092,0.9675631,1.1063467,-0.0906890,-0.0325048,-0.6347067,0.7574233,0.8677966,0.7692524,1.1185097,0.7609757,0.0918578,1.0893317,0.9960456,0.8713185,1.3328462
-0.1649459,0.1811535,0.3520374,-0.0564693,1.2236702,1.0882618,0.9200378,0.9838384,0.2339392,0.5753800,-0.6631575,0.8039542,0.9708114,1.1200776,1.0239958,0.6644681,0.0555993,0.8158323,0.6637809,0.6863192,1.1189369
0.1237573,-0.1307113,0.1123612,0.2183037,1.1317667,0.7105730,0.9701018,0.9542353,-0.1345698,0.0244427,-0.8107941,0.9847671,0.5692037,0.9153524,0.9772933,0.8613429,-0.3189960,0.5630229,0.6498318,0.3590494,1.0299594
0.1520072,-0.2343532,-0.0305343,0.2838412,1.1177894,0.3044595,1.0754555,1.2149161,-0.2218227,0.2928418,-0.5996828,0.4923518,0.2934650,0.8133047,1.1580611,1.0820554,-0.1126899,0.7721481,1.0790894,0.6954787,1.0428336
-0.1673013,-0.2703231,-0.5846795,0.6089323,1.3278430,0.6320419,1.0766474,1.2640508,0.3027341,0.1867808,-0.5141726,0.9114626,0.6015831,1.0688227,1.5846605,1.3001342,0.4731497,0.9961472,1.1923313,1.1886996,1.4018748
0.2577613,-0.4763083,-0.9542160,0.9633713,1.2303170,0.2625986,0.9847127,1.1931701,0.7516087,0.6812947,-0.1020104,1.1281912,0.7982532,1.1312748,1.7175421,1.2412616,0.6316664,1.5202470,1.4409971,1.3800995,1.5580690
0.4772712,0.2915583,-0.2701438,1.7841785,1.2855941,0.7086845,1.2798709,1.5074296,1.2704490,0.5267280,-0.1925213,0.6171886,1.1126571,1.3416994,1.8356742,1.2127352,0.3531524,1.5487372,1.3766404,1.4649557,1.6344926
1.0712230,0.2573673,-0.0239685,1.6704476,1.8240149,0.8221974,1.4892704,1.9531623,1.2182974,0.3738084,-0.2418238,0.2949423,1.0002202,1.5679467,2.0560529,1.3352386,0.0296314,1.1891123,1.5818962,1.5628405,1.3823745
0.8366827,0.1103518,0.5911223,1.1528577,1.9238062,1.0010650,1.4238349,1.7165505,0.8421003,0.3611571,-0.6104121,0.6668606,0.8964038,1.1654984,1.4874777,1.1215072,-0.1404390,0.9319973,1.0161833,1.1327945,1.2223990
0.3810290,0.0010519,0.6892332,0.3538846,1.1624767,1.1962045,1.0320561,1.1326782,0.3231452,0.0275893,-0.7404293,0.3202842,0.4280249,1.0896162,1.1467744,0.6911651,-0.1421409,0.9757083,0.9301460,0.7510830,1.3254762
0.2498814,0.6955624,-0.1673721,-0.0334005,0.9853141,1.0582738,1.0582958,0.9222251,-0.1144114,0.1084063,-0.5582547,-0.0347755,0.6188495,0.8761376,1.0687594,0.4733015,0.1329818,1.1316404,0.8770869,0.9950742,1.4439543
-0.4089382,0.2213079,0.3812832,-0.5065852,0.5778033,0.9579018,0.9179336,0.9095855,0.2891534,0.2241959,-0.3103834,0.6446109,0.6527405,0.7451903,0.9028324,0.6503246,0.3311161,1.3053800,0.8196958,1.0023954,1.6410910
-0.6827385,-0.2080173,0.4375460,-0.3019411,0.3352773,1.2177103,1.1152271,0.8196064,0.0631974,0.0115174,-0.1807639,0.6828685,0.8492536,0.9289137,1.3081974,0.4917510,0.2084354,1.3681763,1.2339474,1.4446719,1.5364254
-0.1846738,0.0393426,0.6315890,0.3121314,0.9368107,1.5423927,1.1067091,1.2897280,0.5661830,0.5624934,-0.1027787,0.3030646,0.8105730,1.0749789,1.5893563,0.7714384,0.1356300,1.1151831,1.2237576,1.2018160,1.5704319
0.5841714,0.4691701,0.9598301,1.0211068,1.6610196,1.3754032,1.0371515,1.4209337,0.6249884,0.5409778,-0.4460886,0.2007304,0.5850269,1.2252117,1.8249600,1.0056585,0.1091869,1.0680770,1.1037353,0.9318367,1.2823836
0.5719282,0.3524806,0.5980968,1.2878798,1.9551054,0.6801237,0.8921252,1.4099638,0.6274611,0.5273005,-0.6508543,0.7924703,0.7221069,1.0178192,1.4400936,0.8263766,-0.2053989,0.8987014,0.9612201,0.7347851,1.1400536
0.5983529,0.4025161,0.5794473,1.0211854,1.6654222,0.4992951,0.9796500,1.4907999,0.4766332,0.2788291,-0.6140426,0.4611148,0.4985313,0.8784283,1.1138535,0.3419163,-0.1977929,0.9621791,0.3306454,0.2844482,1.0146115
1.2389005,0.4958523,0.3844349,1.2938076,2.0125813,0.2586098,0.8033984,1.3699775,0.3548199,-0.4386521,-0.5049427,0.1676776,0.6268870,0.6988421,1.0726287,0.2378884,-0.2711914,0.7254766,-0.0300889,0.0922648,0.8740083
0.6505113,0.3139805,0.7070684,1.2863598,1.7643764,0.4100996,1.0238338,1.2535756,0.6184688,-0.1065486,-0.3403017,0.8583122,0.5496400,0.7957560,0.5252324,-0.2647277,-0.3332942,0.7134561,0.0847936,0.0772379,0.6671540
0.5992340,0.6944865,1.5645592,1.1160840,1.0521230,0.7375993,1.4767706,1.1114448,-0.1047201,0.0340987,-0.3306697,0.8704795,0.7651306,0.7007956,0.4841080,-0.2024226,0.0195120,1.1573143,0.1145369,0.2080725,0.5599421
1.3966650,1.0218267,2.4601254,1.5558978,2.1148114,1.2766703,2.1931584,1.4140508,0.1965026,-0.1205327,-0.0606448,0.9319704,1.0692128,1.1839792,1.1767319,0.6353824,0.5772525,1.3379239,0.3365619,0.4473535,1.1139250
1.4638628,0.7355002,2.1116519,1.5818766,2.6589894,1.2334276,2.3998649,1.3691040,0.8929994,0.8295017,-0.0434477,1.4450687,1.6224591,1.4882975,1.9777958,1.0941640,0.4922565,1.4464265,0.5567613,0.7171416,1.5192358
1.6864645,0.6386842,2.0566065,1.8323572,3.0169611,0.9214261,2.0217330,1.7338834,1.3177736,1.2991202,-0.0041460,1.2290392,1.4555644,1.6663313,2.3629131,1.5269156,0.8695567,1.6658448,0.9263111,1.3246328,1.8455671
2.0010312,0.6603945,1.7623692,2.1061089,3.1055400,1.0826434,2.0608759,2.2243826,1.9246732,0.7367314,0.0065463,0.6933278,1.6312647,1.9191452,2.1656320,1.6502534,1.0654418,1.7916878,1.3823071,1.5633668,1.9065175
1.1578696,0.3946719,1.7028093,1.8886515,2.3294170,0.6402277,1.8885535,2.1912546,1.3845178,1.0179052,0.0507752,0.9634291,1.4915169,1.8916148,2.1748700,1.6642721,1.0007192,1.6735506,1.6224282,1.5615349,1.8703246
0.5446490,-0.3355317,1.0497792,1.5473154,1.7645637,0.5726784,1.4705949,1.6376160,1.0183617,0.9812386,-0.0931043,1.3636144,1.7740369,1.9232751,1.6912144,1.4178808,0.4382538,1.6785002,1.2151049,1.5069276,1.5979308
-0.0218444,-0.1412027,0.8489706,1.5077437,0.8131552,0.3193158,1.3805465,1.7036023,0.9279221,1.1781998,0.2163493,0.9519624,1.5413934,1.7537889,1.8187358,1.4747504,0.6390784,1.7117100,1.1753601,1.4884340,1.6041694
-0.0969345,0.1920020,0.3766057,1.2811320,1.1370125,0.6376308,1.5222307,2.0241690,1.1482843,1.4980892,0.5312076,0.7400712,1.4573953,1.6381536,2.3336189,1.4864613,1.3138405,1.8437644,1.2601788,1.6782565,1.6043357
-0.3876236,-0.0808160,0.4645954,1.0667744,1.2968420,0.7933593,1.7516478,1.7174190,1.5246885,1.6161745,0.7858956,1.8098828,1.9248134,2.0307565,2.1328835,1.6801479,1.8122349,2.2026386,1.7553123,1.8874152,1.9860530
-0.2429806,-0.7644898,0.7285351,0.4413388,0.3612410,0.4138006,1.7610509,1.6140484,1.1070063,1.7867583,1.3416759,2.2924690,2.2456570,2.1840296,2.0321529,1.8695487,1.6165521,2.3557415,1.5911274,1.7497386,1.9049164
-0.7245513,-1.1445694,0.9246032,0.6960505,0.0345275,0.8991103,1.7079929,1.7320505,1.1235006,1.8065875,1.3295199,1.6418670,2.3364091,1.7891846,2.0192499,2.1113768,1.5534374,1.9490288,1.3297857,1.6808275,1.5447767
-1.2180657,-1.2093080,0.3361370,0.4512199,0.5243084,0.8858584,1.4770197,1.6587402,1.1568332,1.5372713,1.3503823,1.6680341,1.8143010,1.7183260,1.5930272,2.0048456,1.4326720,1.3918462,1.1512882,1.7335997,1.4811392
-1.3405029,-1.5426241,0.2899424,-0.2000635,0.5857717,0.9190509,1.2374147,1.2840869,0.6227432,1.5681139,1.1573607,1.9043912,1.1974351,1.4389689,1.0104907,1.5784882,1.3589052,1.3535792,1.0099474,1.4735070,1.3111101
-1.4676263,-1.5300391,0.5243669,-0.6576887,0.5440803,0.8614199,1.0252548,1.1174204,0.4597422,0.9426260,0.7761198,1.4517488,1.3420005,1.0807489,0.3768888,1.2042559,1.0820721,1.0757366,0.7762718,1.3146553,1.2033893
-2.1612780,-1.6355700,0.2428099,-1.5429574,0.0711123,0.8535659,0.6521569,0.8344904,0.1425036,0.3311973,0.5511771,1.3775592,1.0652943,0.9754549,-0.0746710,0.8226800,0.8123255,0.7161437,-0.0165595,1.2195847,1.0232340
-2.8161142,-1.8785650,-0.1944740,-1.7706050,-0.5505680,0.5527892,0.2148373,0.3956646,-0.1810038,0.0501748,0.4075002,1.6858685,0.4346350,0.3589080,-0.7810986,0.1496843,0.4735613,0.1780978,-0.3456870,0.7589775,0.5305992
-2.9167683,-1.2637743,-0.8594534,-1.5703092,-0.2744773,0.4945987,0.0151908,0.2703417,-0.6329172,-0.1155196,0.5151398,1.2017847,0.1542171,-0.0030206,-0.8114522,0.0502574,0.5901581,0.1165820,-0.3590575,0.4526964,0.6444032
-1.5427161,-0.6360764,0.0188519,-1.3430223,0.0597263,0.7637811,0.2710473,0.4948649,-0.1999780,-0.1106340,0.2230682,0.5154014,0.0332377,0.0431974,0.1928247,0.5418924,0.2935748,0.4001066,0.1259836,0.5713881,0.9317165
-0.7133530,-0.1105566,0.7854726,-0.7342856,0.5114729,0.4802819,0.6338237,0.6083024,0.0793910,-0.1053012,-0.1005401,1.1340231,0.5720910,0.7387727,0.7977771,0.6151634,0.1356120,0.7557822,0.7463658,0.9400523,1.1483059
-0.2087689,0.5198768,0.8306656,0.4748432,1.2695270,0.8177408,0.8246146,0.9405075,0.6299832,0.3651013,-0.2961764,1.0337455,0.8966151,0.9039683,1.4925923,1.0175544,0.3418479,1.0227118,1.2285374,1.0248799,1.3723326
0.7320346,0.3325059,1.1828734,1.2192510,0.9897912,1.3056890,0.9820117,1.4875439,1.1209921,0.8637870,-0.2159928,0.4810571,0.6533919,1.0589461,2.2697136,1.2261715,0.5659902,1.1712041,1.2039633,1.5215921,1.5332718
1.1315068,0.4182151,1.5519205,1.5067054,1.4382677,1.3017300,1.2191560,1.6988093,1.8179444,0.9762166,0.1256701,0.8688558,1.2448127,1.5703886,2.6928830,1.3849785,0.7970631,1.5748687,1.9342452,1.9443783,1.9251641
0.4394344,-0.2447813,1.2766261,1.6051664,0.6998154,1.3602774,1.1281660,1.8434691,1.8244280,1.2920872,0.1393321,1.2721633,1.1841959,1.4623891,2.5905950,1.6597234,0.9615568,1.4178226,1.9930820,1.7414372,1.7013491
0.1721407,-0.1085833,0.5945336,1.3060080,0.3643261,1.0317123,0.8136257,2.0342457,1.3610208,1.1410545,0.4266483,0.7376122,0.6336306,1.2729243,2.1169012,1.4563956,0.5260739,1.2688106,1.4510497,1.5333884,1.4128175
-0.6437808,0.2732673,-0.4473443,-0.0910321,0.8184782,0.6997058,0.8434253,1.6368357,1.0315470,0.6527061,0.2102765,0.5540607,0.2927887,0.9759589,1.4542487,1.2868347,-0.1014059,0.6988317,1.2221824,0.9753536,1.1872314
-1.0528599,-0.1953096,-0.6960526,-0.2340651,0.3322566,0.4623612,0.3357250,1.0805748,0.7185791,0.8503933,-0.4402650,0.7585408,0.0822164,0.6936083,1.1593144,0.5023781,-0.6288320,0.1190573,1.1341937,0.6101166,0.5971544
-1.9667020,-0.3029009,-0.8999051,-0.8236399,-0.1873772,0.0049285,-0.0928808,0.9206077,0.3703396,0.1121416,-0.5374352,0.3879852,-0.4801221,0.2903994,0.5524794,0.4902532,-0.7762347,0.0314975,0.5223939,0.2758470,0.4887089
-1.6861715,-0.5035830,-0.9988322,-0.8591406,-0.1577811,-0.1046255,-0.3642897,0.6848378,0.0599657,-0.1000534,-0.5220034,-0.1545555,-0.6422850,-0.0077910,-0.0972586,-0.0166424,-0.8359651,-0.4326399,0.0035472,0.0416096,0.2597694
-1.9745883,-0.6121854,-0.9800899,-1.3287033,-0.5315146,-0.0669009,-0.2989765,0.2024170,-0.6957809,-0.6515597,-0.5200862,-0.1945732,-0.6109418,-0.0652157,-0.1451388,-0.0725748,-0.4627082,-0.3834316,-0.1480668,0.0829891,0.3436464
-2.9919958,-1.1360856,-0.9170346,-1.5158548,-0.7797645,-0.3213910,-0.4075592,0.2189492,-0.8176609,-0.4969087,-0.4400004,0.3101960,-0.2930235,-0.1509064,-0.0870248,0.4695993,0.3830635,0.0444658,0.3807481,0.5785785,0.6087337
-3.2919521,-1.4357615,-1.5252091,-1.8790982,-1.3114591,0.1825548,-0.3392375,0.1390013,-0.6762225,-0.5295860,0.0465895,0.4918109,-0.3113197,-0.1406987,-0.1755515,0.6498404,0.7560126,0.2022030,0.2233207,0.8250306,0.9547825
-2.9262445,-1.1810015,-0.9764788,-1.1100603,-0.3597336,0.6301107,0.1063294,0.3044077,-0.2127834,0.0285232,0.2478319,0.8114983,0.5415673,0.5122615,0.7502377,1.2418114,0.9984117,0.9713575,0.4792511,1.5956368,1.4915390
-1.9739343,-0.7749787,0.1435790,-0.0561033,0.0318012,0.8130387,1.1665492,0.9381078,0.6813328,0.6574306,0.2418563,1.7230023,1.4492589,1.2955306,2.1184225,1.8525052,1.5974276,1.8496853,1.5515611,2.1719971,2.4144335
-1.3426025,-0.1608315,1.0418223,0.7772574,0.8095969,1.3082974,1.8786808,1.6346248,1.3435011,1.2054349,0.3820019,1.4308141,2.4451487,2.1811333,3.0405440,2.4903772,1.8511757,2.1858685,1.9780023,2.6281226,2.6776667
-1.2198858,-0.1652282,1.2535572,0.6076793,0.7316340,1.5709357,2.1966529,1.8134358,1.8104002,1.3638976,0.3360202,1.8257111,2.4475768,2.3830988,2.6889284,2.3511074,1.9239886,2.1076839,2.2872283,2.7578254,2.6486712
-0.7339354,-0.3396022,1.8445562,1.2707348,0.0348000,1.6082655,2.3677180,1.3693575,1.7829044,1.0170364,0.4566400,2.5365701,2.5757508,2.4992232,2.6006758,2.6997929,2.0394626,2.3337269,2.5828953,2.7168996,2.6781456
-0.8258368,-0.6636099,1.5675191,1.7939000,1.0769261,1.2174428,2.0762968,1.8008857,2.3790946,1.4002713,0.7538808,2.1851158,2.3042035,2.4483259,3.2292781,2.7373753,2.0013833,2.3497760,2.7958102,2.7848287,2.5926969
-0.1720085,-0.5221649,1.2057819,1.7425226,1.9150956,0.7189421,1.8576826,2.1280200,2.4184389,2.0332189,0.8739505,1.7833062,1.9544417,2.3226047,3.0306902,2.3338799,1.9962710,2.0164952,2.4463224,2.5214047,2.1484065
0.0654684,-0.6312466,0.9031679,1.7507766,1.6295663,0.5141771,1.5601311,1.8945464,2.5330117,2.0552673,0.3535771,1.8124372,2.0880222,2.0852184,2.2664568,2.3035238,1.6088237,2.0620706,2.0950933,2.2641525,1.9749498
-0.0410569,-0.8992057,0.6883027,1.5683120,1.0375021,0.4829560,1.5502172,1.8019643,1.9405292,1.6324211,0.4231175,1.6419845,2.0717936,1.9981501,1.8656111,1.6211545,1.0618136,1.9340442,1.7135960,1.8696737,1.5744092
-0.2972225,-0.6859952,0.6481079,0.8458241,0.8699527,0.2255054,1.2113709,1.4895748,1.6565746,1.0719705,0.0537868,0.9406892,1.5520116,1.6998649,1.6368741,1.3587110,0.5801044,1.2091529,1.2660766,1.4896665,1.2701980
-0.2426092,-0.7229159,0.7335634,0.9063692,1.2963870,0.3695861,1.0860149,1.2603276,1.2793100,1.0202324,0.2117689,1.2114041,1.1502787,1.3052312,1.0176693,1.1528170,0.4604398,1.2015773,0.8925113,1.1256415,0.9117491
-0.0980680,-0.7650884,0.8422406,-0.1272516,0.9749059,0.8187955,1.3500953,1.2908912,1.1868989,0.7468867,0.0207930,1.3880398,0.9433385,1.2439930,0.6169106,0.7290044,0.0720762,1.1802119,0.2868997,0.8870277,1.0949211
-0.4027549,-0.9186704,0.6865741,-0.2690980,0.2854463,0.8624411,1.6055702,1.3362567,0.2881947,1.0126469,0.1961722,1.0712198,0.9617593,1.1939077,0.5821984,0.3114331,0.4101668,1.2496628,0.1956625,0.8016638,1.0476233
-0.8820490,-0.6364728,0.6955096,-0.2860736,0.4057124,1.5587283,1.3383908,0.7728668,0.4194823,0.5401016,0.0670262,1.1904656,1.4874651,1.2778608,0.2808160,0.5647519,0.6778761,1.1405079,-0.1456068,0.7778932,1.1001818
-0.3272081,-0.3396719,1.7485788,0.1106785,0.9191898,1.4430306,1.7918023,0.5721455,0.2921559,0.5772294,-0.0033951,1.4899234,1.6523162,1.6329330,0.7904129,1.1266497,0.9646234,1.6335484,0.2565356,1.1969292,1.5777795
0.4598495,0.1752336,1.9607445,0.6794910,0.9202586,1.6796672,2.3203487,1.0182986,0.7906185,0.9295040,0.4014448,1.5174906,1.8514940,1.9376948,1.7490141,1.7001966,1.4782096,1.8373936,1.1791196,1.5305922,1.8472364
0.6124500,0.1088324,2.0046523,1.3568430,1.0170664,2.0303154,2.1098549,1.3600460,1.0211005,0.9458281,0.2875020,0.8562742,2.1668525,2.1501400,1.7368630,1.5944372,0.7905400,1.6421816,1.1856663,1.4992597,1.6660112
0.3261062,0.2490427,1.5259372,0.8933045,0.1422940,1.6758707,1.8502660,1.0885981,0.7875813,0.7993622,-0.1786362,1.0845811,1.7194839,1.5244559,1.0594448,0.8763846,0.5508323,1.1221585,0.7537430,0.8603281,1.4832313
-0.0427794,0.3125961,1.1343836,0.2628134,0.0799599,1.8537402,1.4095324,0.9755268,0.5783352,0.4068880,-0.0563693,0.9457541,1.3242489,1.2694998,0.4334459,0.4584511,0.2096871,0.7738258,0.2987806,0.4449418,1.1216010
-0.6913810,-0.1218707,1.2639242,0.0184608,0.5273961,1.9855360,0.9139985,0.9159358,0.2446137,-0.5026080,0.0371628,0.4892849,1.1226658,0.9917609,0.0805552,0.3593725,0.1842193,0.6964603,-0.2449989,0.0416784,0.9479801
-0.1606247,-0.7078907,1.4921548,-0.2399817,0.0268207,1.5017650,1.0089902,0.5946220,-0.0754780,-0.1671969,-0.0677903,0.8971075,1.0230983,0.9449531,0.2104051,0.3638060,0.0480464,0.7207671,-0.0745195,-0.0057631,1.0001621
0.2907812,-0.3423370,1.2892591,0.4415890,0.5845559,1.3872194,1.4345500,0.7896137,0.5502822,0.1044957,-0.2338111,1.0608256,1.4171208,1.4131747,0.3977358,0.2880399,0.0733221,1.2119076,0.2052879,0.2133729,0.9333737
0.5846571,-0.0476643,1.3768200,0.4776215,0.1432759,1.6225901,1.3993658,1.3235139,0.8680672,0.0980338,-0.2869895,0.6766485,1.4748267,1.4477142,0.7724814,0.3781582,0.3277105,1.3225443,0.1072115,0.3638306,0.9186675
0.3988985,-0.3588482,1.5473462,0.6947668,0.6933481,1.7763077,1.3771555,1.3924016,0.5868734,0.1047340,-0.2119503,0.7157187,1.6009259,1.5614121,0.8722732,0.5844709,0.4074487,1.2484697,0.3076584,0.5569492,1.0390155
-0.1989815,-0.3648160,1.0342653,0.2078051,0.4130238,1.5256121,1.2427890,1.1437699,0.2625810,0.2765988,-0.2821150,1.4861892,1.4885423,1.9053874,0.8342716,0.7187752,0.4148476,1.7851280,0.6316267,0.7038293,1.4072646
-0.3212225,0.1311824,1.3239698,0.2414175,-0.6536742,1.6538206,1.5605776,0.8866168,0.4848845,0.2257922,0.1732433,1.5893059,1.8299133,1.9580941,1.2364643,0.9655288,1.3727055,1.9433962,0.8948414,1.0229394,1.5812302
-0.5043145,0.2918361,1.3155961,0.2038173,0.4843401,2.3021064,2.0690315,0.9617125,0.7796598,0.6828163,0.6986980,1.7415236,2.4365718,2.2156367,1.2825974,1.5737554,1.8525325,2.1333921,0.9181012,1.4696352,2.0185735
-0.3302960,0.0605585,1.0910071,0.7947215,0.9036044,2.2574968,2.1617672,0.9431959,1.0563265,1.2045138,0.6660806,2.3174629,2.4084637,2.3592310,1.5839454,1.6058536,2.0859313,2.5179145,1.1790686,1.9042410,2.2493453
0.1840520,-0.2248822,1.9991988,0.6077288,1.7281560,2.0225267,2.2073059,1.3118309,1.6263839,1.4760222,0.9747359,2.3432155,2.6178174,2.6247985,2.3116002,2.0620229,2.3036058,2.9974394,1.7237825,2.5046859,2.7292988
0.9340194,-0.2213366,1.8848641,1.2382393,1.9697459,2.2224584,2.5213549,1.6047693,1.9964908,2.4059658,0.9073877,1.7325627,2.5388343,2.8315878,2.8462172,2.6278059,2.0848296,2.7843082,2.0012057,2.6535511,2.8213475
0.8050598,-0.0307070,2.2023287,1.5205922,1.7522861,2.1451194,2.6302397,1.7061640,2.2701855,3.1737139,0.6157058,2.1666477,2.9998090,3.0625758,2.9237614,2.8548429,2.3370543,2.7422409,2.2621620,2.5194268,2.8534069
-0.0104069,-0.6324121,1.4365847,0.8735046,1.5048831,2.1694756,2.2890668,1.5362655,1.8036255,2.8560016,0.5447769,2.1839731,3.1075323,3.0460804,2.3765452,2.5940793,2.4133523,2.7252626,2.3871322,2.3484287,2.5564954
-0.9945543,-0.8863000,0.4801197,0.8007227,1.6334567,2.2497790,1.8633448,1.4894395,1.2270401,2.5975096,1.0832422,1.8564786,2.5364974,2.4619758,1.8406273,2.3173776,1.9575797,2.5150206,1.7874085,2.2815938,2.4390681
-1.4849267,-1.1595168,0.7381032,0.2551772,0.6956256,1.7488483,1.2841202,1.1508994,1.0733793,2.5901284,0.8134663,2.1484997,1.9572505,2.0819807,1.5704186,2.1356392,1.7196184,1.8826810,1.6891133,2.1653593,2.2303872
-0.8852148,-0.8590932,1.2263175,0.4984740,0.6433393,1.5117246,1.3138179,1.2836962,1.0761970,1.9864129,0.4702437,2.1195447,1.8454480,1.8191792,1.1251001,1.8838173,1.3425385,1.9929276,1.6271459,1.9516366,2.1643887
0.4522153,-0.2238733,0.9768084,0.6050470,1.1847185,1.3328031,0.9871156,1.3641878,1.1573144,1.0268087,0.4359020,1.4072452,1.5724500,1.8135351,1.4091427,1.5099061,0.9180101,1.7114713,1.5079443,1.9660977,1.6209955
0.7226674,0.4569640,1.1575942,1.2331156,1.8685741,1.3900204,0.7464994,1.3211001,1.2358860,1.0591507,-0.0548050,0.3137912,1.1776659,1.2764030,1.6985770,1.6888893,0.7792007,1.3516626,1.2698845,1.3209791,1.7045698
1.3995999,0.1232528,1.3196428,0.7318515,1.9219538,1.3577876,1.0264580,1.3584578,1.3614032,1.1240891,-0.4111659,0.8492124,1.2330904,1.6935967,1.9934280,1.6385735,0.7129387,1.2202085,1.2465216,1.2233880,1.6906300
1.8537028,0.5498079,1.7024454,1.4036680,2.1502817,1.0747222,1.2695254,1.5018569,1.2601831,1.0706338,-0.2334704,0.7339662,1.1385754,1.7795812,1.9998440,1.5395120,0.5755727,1.4711304,1.6041900,1.1623605,1.6331097
1.6068466,0.7357383,1.7054785,1.6181488,1.4635315,1.8991492,1.5826268,1.6070735,1.0415879,0.7411109,0.1639785,0.9166502,1.7305651,1.8295952,2.0383942,1.2810386,0.4040076,1.9856806,1.4357136,1.0321944,1.8653431
0.9423008,0.7054992,2.2204936,0.6952848,1.0851464,2.0076597,1.7905740,1.4596063,0.8895948,0.1021885,-0.1852744,1.7590479,1.6213702,1.7555968,1.4935640,1.0964160,-0.3776128,1.8341687,1.0644833,0.9995325,1.5732898
0.5176322,0.1632548,2.3002753,0.4872090,0.3348378,1.3602452,1.5956576,1.2774086,0.3761415,0.1024053,-0.3862014,1.6572822,1.6032813,1.6292253,1.3692133,0.8665031,-0.4729946,1.4606658,0.8383406,0.9518036,1.6946489
0.2693171,0.5156796,2.0589609,0.9829396,0.3330237,1.9215775,1.6409333,1.6699712,0.4957116,0.5488988,-0.1350660,1.1892349,1.5344683,1.6931187,2.1640153,0.9288395,0.5423931,1.7936888,1.4312584,1.5573190,1.9224063
1.0866513,0.7095324,2.7346561,1.7942766,0.2795776,2.2202816,2.0465763,1.9334880,1.4166138,0.9974139,-0.0153791,1.6246768,2.6515663,1.8290489,2.5866785,1.6138811,0.9100347,2.1484039,1.6926267,1.7368137,1.9830298
1.6014668,0.6915215,2.6918645,1.6674975,-0.4625181,1.5573033,2.3753028,1.6530627,1.4228247,0.7677259,-0.3901345,1.8013277,2.0353653,1.9179590,1.8940141,1.3408533,0.3307725,2.1665311,1.3624821,1.5807954,1.6622177
1.2766420,0.9135035,3.0140343,1.3199128,0.1072286,1.7459544,2.0947852,1.6085827,0.7164826,0.6244186,-0.5326906,0.9206014,1.5038342,2.0941401,1.0765254,1.2256370,-0.0424112,1.7223941,0.8003771,1.1954174,1.5385196
0.2662036,0.6879475,2.9961214,0.7335149,1.1137000,1.6761731,1.9051455,1.2244923,0.2410297,0.6238632,-0.2839211,0.7705945,1.4106820,1.9928035,0.1850509,0.7302378,-0.1555185,1.3885374,0.0317506,0.9962011,1.5252873
-0.1127171,-0.0043869,2.0238883,0.0891553,0.6025666,1.8911449,1.4199576,0.5504096,-0.4692665,0.1724513,-0.0797270,1.0756397,1.2596449,1.4860456,-0.3831257,0.1190499,0.0428540,1.4211221,-0.4292845,0.6608269,1.4196445
0.1190187,-0.1989031,1.3855599,-0.5016384,-0.3062085,1.5574247,1.0366588,0.3003726,-0.6090187,-0.2627452,-0.0701351,1.1654454,1.3601403,1.2502021,-0.9027061,0.3573020,-0.3387451,1.5784293,-0.3190103,0.8190557,1.3824650
-0.3382718,-0.2444272,0.6740376,-0.8401688,-0.3733730,1.1771557,0.6458136,0.0411947,-1.2052689,-0.3430499,-0.1451936,0.7524847,0.9134258,1.1902957,-1.2711426,0.1834946,-0.7052734,1.4478990,-0.2431855,0.6370229,1.4116582
-0.9198924,-0.6707646,1.0279337,-1.0366876,-0.1325455,1.5222182,0.5741270,0.0214270,-1.1248268,-0.4466255,-0.5793419,0.5535037,0.8251379,0.8081615,-1.6101676,-0.2589818,-0.8773249,0.8259803,-0.5008119,0.2635575,1.1560171
-0.8987033,-0.4533128,0.5414031,-1.2854602,0.0096197,0.5000841,0.4339902,-0.2669402,-1.1807487,-0.9109173,-0.7454966,0.5105466,0.5821949,0.5264560,-1.5474700,-0.1883011,-0.6119236,0.8787248,-0.3298077,0.3580607,1.1656594
-0.2851516,0.0919152,0.5358442,-1.3003275,-0.0468579,1.0759488,0.2624882,-0.4171836,-1.1633427,-0.8867148,-0.7501261,0.0301303,0.1425123,0.4309820,-0.8016066,0.0164033,-0.6282970,0.7633638,-0.1196390,0.2604757,1.0823817
-0.5857701,0.0805339,0.5744130,-0.9755899,0.3773293,1.3991793,0.1204355,-0.3145544,-0.7860266,-0.4053381,-0.5252953,0.4378928,0.3128912,0.2147857,-0.5587463,0.0353206,-0.7449523,0.8527749,0.0984523,0.2013863,0.8865476
-0.8035526,0.1317389,0.7414529,-0.6374887,0.6653591,1.1085871,0.2029395,0.0583486,-0.4874286,-0.2948947,-0.4195085,0.4085707,0.7612203,0.5369971,0.4382875,0.2093340,-0.5148438,0.5420962,0.1486277,0.4068823,1.0895461
-0.0328368,0.5557542,1.2983538,0.6407391,1.0323269,1.1413178,0.6590465,0.4400943,0.0138564,-0.0862545,-0.4647102,0.4368137,0.9329683,0.1302296,0.9343324,0.4537821,-0.4050450,0.6140953,0.3848954,0.3182041,1.3121113
1.1966845,1.3832293,2.1975460,1.0331702,1.3268946,1.4644467,1.0147079,0.7532050,0.7721194,0.0029330,-0.3913493,0.4558303,1.1293994,0.4683736,1.8247273,1.2199018,-0.2520802,0.7961498,1.2199678,1.0550854,1.4197938
1.8553549,1.0445938,1.9573883,1.9030317,1.4213765,1.7576295,1.4631323,1.5116104,1.8548661,0.8606413,-0.4605529,0.8774417,1.2372814,1.0398802,2.1177247,1.5437174,-0.1317658,1.0267855,1.3620096,1.1510779,1.4334390
1.7657336,0.7296127,1.4273701,1.4626236,0.8923625,1.5703299,1.2505928,1.8118082,2.0429707,1.0273435,-0.3831051,0.8897033,1.4551998,1.0812950,2.1240499,1.5077037,-0.1283883,0.9959830,1.1708826,1.0135962,1.2469507
2.0897202,0.6999441,2.0702317,1.4572592,1.3692864,2.2721858,1.2567476,1.8664157,1.6832812,0.7529578,0.0322735,0.4422737,1.5955553,1.2028924,1.9315753,1.4483216,0.2129923,1.1979817,1.0875704,0.9967988,1.4325424
1.2697569,0.3885017,1.9938549,1.0062088,0.9055942,2.0971351,1.2620536,1.2672131,1.2552682,1.2261229,-0.1138787,1.1514435,1.6336499,1.2590771,1.1802146,1.2643415,0.2566216,0.7992398,0.8409570,0.7697921,1.2688537
0.5705287,-0.0652496,1.1632733,1.0140430,0.5583945,1.4891403,1.0569893,0.9411837,0.7390593,0.8648610,0.3490940,1.5865020,0.9114981,0.8203894,0.7753987,1.3222102,0.5236179,1.0137883,0.8788613,0.5518154,1.2465940
0.2983876,-0.0437402,1.2200795,1.3149581,-0.4407927,1.4763753,1.0607224,0.7986023,0.5650520,0.4802484,0.4413198,1.2742919,1.0624384,0.9344542,0.6415291,1.1980309,0.3275846,1.2491440,0.4601763,1.1126541,1.2342497
0.3753670,0.2657660,1.7192389,0.7672892,-0.0763629,1.7321799,1.2813915,0.7121028,0.5569309,0.7745067,0.3430656,1.2237513,1.4696606,1.3166200,0.5107818,1.6609696,0.2490312,1.4143859,0.3099835,1.2074414,1.6215764
-0.1981848,-0.0795069,1.0488077,0.4813673,-0.0647904,1.6827469,1.3855816,0.5281934,0.3940691,1.3012656,0.3644556,1.4495702,1.2917616,1.4774587,0.3570267,1.5388546,0.6359627,1.7499014,0.4002171,1.4033736,1.6679802
0.7916628,-0.0963916,1.4284724,0.8148143,-0.7343197,1.7179207,1.4943581,0.5836826,0.2692483,0.8884029,0.1918390,1.3117572,1.5217596,1.0876821,0.1943319,1.2010713,0.6105325,1.6386892,0.7413434,1.2312726,1.5599298
0.4496394,0.0085846,1.5092236,-0.2383485,0.1534653,1.7552503,1.1114974,0.5105394,-0.0074106,0.4893216,0.3922860,1.3319341,1.4164090,1.0671824,-0.0773497,0.5952265,0.3830557,1.1604549,0.3868182,0.9589717,1.3462815
-0.7757086,-0.4304254,1.2176087,-0.8495710,-0.2384773,1.3359954,0.5330341,0.2060825,-0.3610527,-0.0210675,-0.0414560,1.1658497,0.8556181,0.6422108,-0.4279733,0.4121748,-0.2660716,0.6899580,-0.3148241,0.3408279,0.8493320
-0.8662342,-0.6043760,1.0559914,-1.2767495,-0.7726939,0.9133155,0.5573909,0.0960070,-0.5506079,-0.1470974,-0.1704298,0.6580023,0.3411959,0.2937414,-0.7461780,0.4329831,-0.1570968,0.5331760,-0.3678732,0.1068727,1.0537019
-0.3753594,-0.5786503,0.8335479,-0.8760173,-0.5912442,0.9562868,0.3465670,0.1186614,-0.7999346,-0.2465021,0.0555965,0.3832464,0.1658960,0.3206076,-0.8257656,0.4900995,0.0253155,0.7814367,0.0029916,0.4900351,1.3076239
-0.6618471,-0.3149141,0.2141884,-1.1887771,-0.2217170,1.1344262,0.0774273,-0.2259498,-1.0152315,0.0977684,-0.0359186,0.3771546,0.2882575,0.3183287,-0.6118822,0.1543374,-0.1629283,0.7079060,0.0063073,0.5992949,1.4767566
0.0276023,-0.1906822,0.0909899,-0.3559450,-0.1179085,0.9952339,0.3006574,-0.1142042,-0.7021692,-0.2458109,-0.4461278,0.3127511,0.4379699,-0.0237602,-0.3972181,-0.0957681,-0.4776497,0.9092998,0.0677459,0.4334714,1.0662700
0.4414671,-0.2698029,0.2924514,0.4691280,0.3862922,0.6566092,0.3485881,0.2670189,-0.4737496,-0.5218621,-0.4680942,0.2012348,0.1142679,0.2045175,0.1459603,0.4891954,-0.6888964,0.9463610,0.6541919,0.3750312,0.9084709
1.0445455,0.3067503,0.6851060,0.2089817,-0.1211061,0.6347577,0.4949347,0.4260522,0.3077035,-0.4192617,-0.7572985,-0.0688054,-0.0557359,-0.0107577,0.2335764,0.2645518,-0.7221793,0.6832739,0.4750337,0.3027864,0.9552532
0.7978348,-0.2159442,0.4407504,0.1595964,0.1423605,0.4046278,0.6221557,0.4306948,-0.2346347,-0.2446462,-0.8996412,0.0687141,0.3076307,0.3097001,0.1338142,0.2499187,-0.6009331,0.8192621,0.3369838,0.2685176,1.0681971
0.6810733,0.0254722,0.7832016,0.3598489,0.2446332,0.4428452,0.6630874,0.6206145,0.0658942,-0.4928735,-0.6856619,0.2404552,0.2493168,0.7248960,0.0535537,0.2455648,-0.5081996,0.9264145,0.2394348,0.1992914,1.0095397
0.7876623,0.1961874,0.7516588,0.1706898,-0.1378547,0.6818454,0.3513536,0.7066261,0.1831305,-0.4334246,-0.2491231,0.0554531,0.0398898,0.2742172,0.4702491,0.2346315,-0.2927653,0.5620858,0.1856417,0.3620687,0.5362756
0.8439246,-0.0795922,0.7190271,0.4416087,0.0210767,0.9681867,0.9035204,0.7814946,0.1843336,-0.1977653,-0.2186425,0.6341809,0.4478193,0.2380081,0.6489595,0.4500110,-0.1042638,1.0126719,-0.0853238,0.3807385,0.6960260
0.2460397,-0.5630930,0.8171126,0.2471420,0.2761634,0.9741933,0.7961934,1.1090527,0.1706031,0.2491208,-0.2825130,0.9974490,0.8322272,0.7655265,0.9501794,0.8592243,-0.2415791,1.1138413,0.2454240,0.4310189,0.8235041
0.4796717,0.1561909,1.1509593,0.3843855,0.6949500,1.5851246,0.7580652,1.0509655,0.4194900,0.2111028,0.0564169,0.5279948,0.8160598,0.6394691,1.0108187,0.8950571,-0.1115776,0.9963831,0.5315538,0.3751009,1.0153545
0.4432430,0.0206674,1.4046135,0.4134628,1.0294039,1.2421345,1.0214924,0.8832800,0.3858676,0.8909312,0.3960145,0.9709972,0.7191373,0.7891200,1.0423691,1.0134701,-0.1845856,0.9188952,0.3508112,0.7698041,1.0168998
0.5152123,-0.4789344,1.3680040,0.2896326,0.9330502,0.9955263,0.6668928,0.8095517,0.2718452,0.8538085,0.3174492,1.2652737,0.9712656,0.8258353,0.5786570,0.7363785,0.0523341,0.7395072,0.1443597,0.6870843,0.9062353
0.2750928,-0.5468743,1.0925114,-0.5959455,0.3199793,1.0146281,0.4415993,0.7586985,0.0275641,0.2867988,0.1269049,0.4664130,0.6421320,0.5770009,0.1322868,0.3843589,0.1202406,0.7702407,0.1159992,0.3207649,0.9413098
-0.4430046,-0.5125729,1.2190567,-0.9149096,0.2044172,1.1576679,0.3470215,0.3848184,-0.5037568,0.4768426,0.3164779,0.9132267,0.6752652,0.1699576,-0.1073033,0.3971098,0.1575605,0.6737571,-0.0509375,0.4974255,0.7514836
-0.5825350,-0.2262968,1.4453413,-1.0181481,0.0912307,0.9264539,0.1729289,0.3747160,-0.6262217,0.0967547,0.4197237,1.4928925,0.6291537,0.2861177,-0.3072062,0.3184532,-0.1007447,0.4849338,-0.2338335,0.2287027,0.8682729
-0.5654938,-0.1534547,0.6300049,-1.2593092,-0.8186254,0.8831023,0.1622028,0.6279589,-1.0530297,-0.6693232,-0.1841680,0.8104082,0.4732687,0.2317675,-0.4914772,-0.0074574,-0.5539696,0.0941061,-0.5632045,-0.1406641,0.5934482
-0.5734912,-0.2736641,0.3035137,-1.4145273,0.1255745,0.8447679,0.3075726,0.5273261,-1.4163436,-0.9225752,-0.5034354,0.1815629,0.2870694,-0.2512358,-0.5207618,-0.1486636,-0.8147975,0.1500541,-0.6388127,-0.3776674,0.7480785
-0.5034292,-0.3349778,0.3881762,-1.3400753,0.2008451,0.2113157,0.2301745,0.0367595,-0.9666107,-0.7582376,-0.6683438,0.5618858,0.2550200,0.3824234,-0.4919671,-0.0781390,-0.6440232,0.3678894,-0.4758039,0.0563280,0.9337072
-0.0218313,-0.1844828,0.4932811,-1.0646187,0.3616084,0.4847073,0.0403158,-0.0506315,-0.8627724,-0.6806155,-0.7751817,0.5609462,0.3844815,0.3694032,0.0708923,-0.4214808,-0.7480066,0.6734166,-0.1702124,0.1193491,1.1141567
0.2041112,0.0205300,0.8889940,-0.8325124,-0.0470327,0.8081449,0.3660712,0.4802432,-0.2312549,-0.1312056,-0.6790785,0.2098544,0.2373905,0.4043397,0.1968397,-0.0170513,-0.5320992,0.6091915,-0.1811108,0.1228098,0.8271190
0.4545688,0.0578842,0.4773159,-1.2444290,0.3365325,0.9309207,0.2069633,0.3730690,-0.2284395,0.2550198,-0.6025878,0.1466860,0.0216773,0.4132245,0.3643179,-0.1111491,-0.7579138,0.1510145,-0.3393360,-0.1176207,0.4825050
0.3142082,-0.0279569,0.3356926,-0.9566852,0.6482766,0.7588755,0.1567965,0.1778859,-0.3192288,0.2204793,-0.4246488,0.4825531,0.1566140,0.0402523,0.2070083,-0.1226638,-1.0106430,0.1859587,-0.3000219,-0.1611250,0.3555179
0.9054304,-0.1863553,0.5483984,-0.3470729,0.2553145,0.5359874,0.0731727,0.5912305,-0.0639953,0.2977227,-0.3396196,0.4041964,0.0340410,-0.1576438,0.6071362,0.3731168,-0.7393066,0.1530440,-0.0839819,-0.0121365,0.0514981
0.9655126,-0.2857611,0.4639182,-0.3013222,0.9411685,0.5423102,0.1824882,0.6485498,0.4351631,0.6002731,-0.4147522,-0.1681089,0.2684917,-0.2275138,0.7654116,0.6365419,-0.4535240,0.0078917,-0.1569357,-0.0537754,0.2012691
0.8465660,-0.2231915,0.5550581,0.1871967,1.1139624,0.6857584,0.4558471,1.0540410,0.5290847,0.9383973,-0.2800412,0.3236593,0.0854410,0.0970161,0.7554248,0.6977816,-0.4972677,0.2796379,0.1418452,0.2177718,0.6614416
0.9707990,0.1979501,0.8931604,1.2702104,0.9435144,0.9324113,0.7103909,1.4611676,0.6630246,1.2729433,-0.1651058,0.2690993,0.2776465,0.3022617,1.0034044,0.6159666,-0.2445019,0.8261938,0.5136859,0.3004926,0.7374625
1.8565814,0.3870112,1.0618316,1.0356233,1.2558686,1.0092849,0.8961549,1.2615571,0.6562524,0.7127366,-0.1635558,-0.1739789,0.3712856,0.5744929,0.7152328,0.4769839,-0.5289324,0.6025754,0.4078990,0.2640530,0.5342481
0.8293267,-0.2065680,0.5850545,0.3525757,0.8050375,0.3397868,0.6523630,0.6605296,0.4037565,0.6529877,-0.7071280,0.1404866,0.2677892,0.5360333,0.4327770,-0.1468783,-0.9246311,0.1903936,0.0280139,-0.1282462,0.4336986
0.3023073,-0.1131105,0.5684570,-0.1801993,0.0035974,0.4543060,0.6862496,0.6231115,-0.1870837,-0.3015139,-0.9151226,0.3045264,0.4534718,0.3165044,0.1410114,-0.5657073,-0.8093786,0.0396078,-0.3847251,-0.2137112,0.4265241
0.5696208,-0.0219206,0.2983210,0.0482808,-0.0428067,0.5712081,0.8667343,0.7130642,-0.3794985,-0.3345422,-0.7906749,0.1526265,0.6330606,0.6238316,0.4080348,-0.1548020,-0.8939049,0.3731223,-0.2478689,0.0319351,0.3660556
1.2509642,0.2589520,0.6665928,0.7527053,0.5373852,0.4872458,0.8583177,0.6375827,0.5302976,0.0365032,-0.6871395,0.6478562,1.0696737,0.5264658,0.5320356,0.3882070,-0.8546377,0.7771938,0.1600024,0.1170631,0.6499491
1.5623062,0.2536703,1.0418888,1.1769389,0.3375393,0.5427166,0.9602448,0.8505374,0.6879318,-0.2458301,-0.9309924,0.6507049,0.9222943,0.7426581,0.7717542,0.1838475,-0.7641985,1.2005215,0.1321733,0.2078527,0.5885429
2.1090517,0.2116821,1.0335162,0.8506682,0.5287507,1.5443206,1.1948526,1.1734598,0.5372456,0.0277005,-1.1050442,0.1635321,1.3679829,0.8283604,0.7905977,0.3062744,-0.7422412,1.0919604,0.4906519,0.2615079,0.6602300
1.5401313,0.2263933,1.5523225,-0.0483855,0.5893330,1.5393957,0.8132293,1.3513339,0.2974574,0.3884197,-1.2093303,0.4552023,1.1003457,0.8110026,0.2932856,0.0748660,-1.0622613,0.6998336,0.0204842,0.1457835,0.4435056
0.5011142,0.2274395,1.4645613,-0.8069126,0.2753769,0.9115839,0.5520461,0.7650477,-0.4434119,-0.5938478,-0.9399827,0.3505948,0.6019750,0.3954724,0.2524548,-0.3594775,-0.7465610,0.5542796,-0.2349053,-0.0864818,0.4177886
-0.0295333,0.2233475,1.1224672,-0.4556006,0.2309220,0.9231841,1.0796881,0.4555725,-0.3000678,-0.3679909,-0.7053075,0.4804500,0.9522635,0.3516371,0.7244352,-0.1614909,-0.4610617,0.6598510,0.4082763,0.1420380,0.6291293
0.6575126,0.5519856,1.2990354,-0.2685338,0.7248158,1.0588211,1.2114377,0.7423378,0.2947026,0.4482753,-0.6065910,0.0990328,1.2822859,0.6680292,0.7518300,0.2516910,-0.5481526,0.7178606,0.3503571,0.4312366,0.5920437
1.1598979,0.5431805,1.4197823,-0.4386874,0.9172696,0.8328599,1.2249321,0.8100975,0.4355461,0.4334706,-0.5982620,0.4348393,1.4250844,0.9263179,0.8201478,0.2278179,-0.7192124,0.9026754,0.2753563,0.6046016,0.6699389
2.2080133,0.1570297,1.0158690,-0.0764702,1.2750477,0.7059224,0.9437151,0.8124199,0.5540944,0.7851290,-0.2612721,0.4463204,1.2558532,0.8557386,0.7282413,0.4287207,-0.5772630,0.8995531,0.5612442,0.8410764,0.8899164
2.1599431,0.0320225,0.5647330,0.6453859,1.4720188,1.1357278,0.4796126,1.3432045,0.8581950,0.4721273,-0.2459743,-0.3060254,0.7039790,0.3688467,1.1553057,0.4532586,-0.6972166,0.4037422,0.6659349,0.6527231,0.7977335
1.5438781,-0.2765284,0.3098514,0.2708352,1.2846391,0.7057827,0.0387258,1.2315406,0.6344190,0.3522908,-0.6170338,0.0682781,0.3979920,0.2482754,1.1746058,0.1935576,-0.6117334,0.3731188,0.4326637,0.6153614,0.9032815
1.2446067,-0.0773390,0.6906832,0.4701503,1.1387632,0.3545928,0.0960080,0.6329000,0.2988876,0.7757136,-0.7298452,0.1328934,0.3090335,0.3664228,1.0873711,0.1999477,-0.4234677,0.4506319,0.5423211,0.4776250,0.6527418
1.1885267,0.1977313,1.4450305,0.5187653,1.0683259,1.2204124,0.7280626,0.6948981,0.2510371,0.2815986,-0.5840594,-0.4756998,1.0308498,0.4689856,1.1019005,-0.0075566,-0.1743568,0.3006236,0.5911218,0.1461036,0.4272356
0.9606804,0.5103438,1.6981430,-0.1702710,1.2826523,1.2273014,0.7534220,0.6997318,0.1419531,-0.1894697,-0.5557539,-0.1666743,1.1105685,0.5970854,0.6509524,-0.0327233,-0.1570312,0.0955807,0.3045646,0.1632731,0.5209582
0.9809168,0.3057315,1.0267608,-0.1721535,0.7823027,1.0825658,0.1520806,0.5066616,0.2915535,0.1569378,-0.6367235,0.1974014,0.6260942,0.3251441,-0.2266795,-0.3636683,-0.3715231,-0.4106538,-0.0467413,-0.1573657,0.2114938
0.4288374,0.4208986,0.3402587,-0.4548844,0.4301066,1.0259651,0.0677200,0.3591509,-0.2138162,-0.0534940,-0.5341414,-0.3457057,0.0757586,-0.0952814,-0.4446549,-0.5024131,-0.4927043,-0.5070703,-0.5588298,-0.7120745,0.0199484
0.6220170,0.1828175,0.1322385,-0.9058290,1.2297137,0.6284874,0.0239748,0.3632367,-0.4293199,-0.3052321,-0.5873455,-0.4237737,-0.3039166,-0.5674225,-0.1170814,-0.4744045,-0.5578844,-0.2929609,-0.3628297,-0.7874954,-0.1509961
0.6026041,-0.0537846,0.4979121,-0.7569262,1.0188065,0.6003342,-0.2031470,0.3200481,0.1161302,-0.6421674,-0.5885767,-0.1280575,-0.0783433,-0.3980800,-0.0334274,-0.3487369,-0.5575085,-0.3900305,-0.1887045,-0.3482751,-0.0255345
0.7578713,0.1792905,0.1994273,-0.6520694,0.0993856,0.3632999,-0.4191237,0.5670421,-0.2862369,-0.7561885,-0.6766133,-0.0582701,-0.3409067,-0.1906417,0.1426420,-0.2599208,-0.6075618,-0.4298179,-0.0649619,-0.1761041,0.1613029
0.8217307,0.4732274,0.2651951,-0.3597134,1.0229083,0.8138402,-0.4542119,0.6339607,-0.3835354,-0.3850166,-0.5854365,-0.3852752,-0.2836432,-0.5470241,0.6545754,-0.0416223,-0.2572072,-0.1065990,0.2328935,-0.0813313,0.3476682
0.4903030,-0.0076007,0.7047211,0.1115774,0.5690876,0.5585132,0.0299037,0.7269138,0.2984466,0.2732804,-0.3331765,0.6222156,0.3258882,-0.2234462,1.1650870,0.3730728,0.3841167,0.4738238,0.5320390,0.4966418,1.0193802
0.2858580,-0.1139353,0.5345207,1.0144935,0.9393947,0.5140287,0.0859816,1.0509853,0.6931394,0.5132711,-0.3837763,0.9427035,0.3374649,-0.0093378,1.1826199,0.8747604,0.0159068,0.7350520,0.8835056,0.6991548,1.3056942
0.7465231,0.0820711,0.5133876,0.8545523,1.3010492,0.6282568,0.1881979,0.9737235,0.7250702,0.9412341,-0.3626160,0.2206935,0.3938858,0.1995700,1.1097466,0.6745373,0.1035555,0.6961640,0.8019299,0.6853218,1.1924202
1.4745384,0.2644071,0.5700406,0.2285164,1.8692292,0.7003920,0.3646191,0.8993599,0.4707219,0.5056205,-0.7946640,0.3917692,0.3682966,0.2829863,0.7994720,-0.0384080,-0.1850661,0.5221198,0.2404879,0.2939705,1.0344794
1.4888436,0.4880146,0.6744291,0.3126637,1.4432319,0.2381552,0.4221705,0.6278591,0.6890055,0.0307360,-0.8532649,0.3190874,0.2875714,0.0942940,0.8507038,-0.6483331,-0.7028261,0.2477043,0.3055003,0.0722979,0.7561684
1.4948735,0.3271291,0.6509030,0.3592303,0.9242730,0.1989582,0.6351038,0.6987870,0.7621254,-0.6499702,-1.2256021,-0.1534578,0.3864563,0.1266581,0.5188062,-0.5071849,-1.0904545,0.3125063,0.0277850,-0.3828068,0.5187457
1.2380040,0.5774804,0.9040600,0.4313879,0.7383357,0.2365523,0.7115786,0.6449311,-0.0588427,-0.7591282,-0.9831863,-0.2804762,0.0290458,0.3604375,-0.0261944,-0.8422891,-1.0174936,0.2719221,-0.3856180,-0.8358458,0.2856709
0.6786559,-0.0962276,0.7915009,0.1271250,0.6648923,0.1118409,0.4198840,0.4111499,-0.3058168,-0.8010920,-0.9836068,-0.0637983,0.1651445,0.2852845,0.3287991,-1.1448586,-1.0294950,0.0114848,-0.5597764,-0.8428698,0.3913428
1.2096441,-0.1581387,1.0097063,0.3853959,0.4543593,-0.0557998,0.4305591,0.6499212,-0.3632158,-1.2611377,-1.2085087,0.1027869,0.0838642,0.2570383,0.3974395,-0.8248143,-1.2019430,0.3046651,-0.6015210,-1.0215255,0.3794970
1.9889165,0.2697421,1.2858492,0.8702750,1.0181384,0.0070278,0.3009408,0.9147352,-0.0322165,-1.3167504,-1.2114366,-0.5349531,0.2949412,0.0386581,0.5862058,-0.6403924,-1.1661935,0.1232370,-0.8155051,-0.7126774,0.0740533
2.2639902,0.7053520,1.5238709,1.0278944,0.9681072,0.0730488,0.1112786,0.8208328,0.6123796,-0.5724996,-1.2833210,-0.3816826,0.4395520,0.3303248,0.7323671,-0.2981559,-0.9654819,-0.0504240,-0.6552749,-0.4109890,0.0815741
2.0515280,0.2458110,1.3348582,0.7954365,0.6913033,0.0345814,0.1138439,1.0607690,0.8823595,-0.1261366,-1.0858846,0.0050545,0.1772709,0.0085141,0.2772275,-0.3976659,-0.8444731,-0.0668991,-0.8357443,-0.3107528,-0.0011725
1.9018649,0.6426559,1.0122305,0.5383822,1.6080371,0.2595937,0.3190906,1.0950341,0.6188542,0.1177493,-0.7789353,-0.6274229,0.0732832,0.0848374,0.1529053,-0.3970565,-0.6192574,-0.2617864,-0.8167073,-0.3183792,-0.2375005
1.9762537,0.6666685,0.8880730,0.3118809,1.5633911,0.4754822,0.4463160,0.6632288,0.1666898,-0.0625164,-0.7281922,-0.5782865,0.2329210,0.0814062,-0.2061742,-0.4168684,-0.5541422,-0.0365671,-0.7276358,-0.3760868,-0.0902817
1.5576839,0.6985537,0.9463222,0.3095760,1.2707127,0.4988073,0.1623220,0.2627752,0.3091688,-0.1788201,-1.1085697,0.1909241,0.2633002,0.0586183,-0.1141338,-0.1946312,-0.8788608,0.1399427,-0.5835737,-0.7464858,-0.2156552
1.0022789,0.4530874,0.8902358,-0.0389783,0.6802630,0.1504344,0.2060274,0.6736760,0.0568714,-0.3636567,-0.9119743,0.0914304,0.2677844,-0.0719441,-0.5446863,-0.2120191,-1.3063201,-0.1021565,-0.4059086,-0.4323500,0.0246498
0.3287780,-0.1291844,0.7790958,-0.5426915,0.0688427,0.3638844,0.0402655,0.5246685,-0.1573937,-0.2763996,-0.9039931,-0.2275196,0.3129774,0.0251775,-0.2778282,-0.4489731,-1.1582937,-0.0438463,-0.4188879,-0.6347246,-0.0191501
0.1548650,-0.0782988,0.6636390,-0.7713464,-0.2786486,-0.1867535,0.3314058,0.1827427,-0.4477473,-0.7784101,-0.9821781,0.2220266,0.0959713,0.0909371,-0.1337309,-0.3809275,-1.0966767,0.0211497,-0.3308868,-0.7507565,0.0521765
0.2876593,-0.3079572,-0.0448305,-0.3205013,0.0399400,-0.0995771,-0.0255833,0.3102831,-0.5487889,-0.3827230,-0.8011878,0.1001454,-0.3253137,0.0336653,0.1048365,-0.4929325,-1.0437644,-0.0363802,-0.2153430,-0.4181045,0.0884487
0.8848894,-0.2217757,-0.2643960,0.1711023,0.7626131,-0.0473389,-0.4221869,0.6432724,0.2903233,-0.2624596,-0.8398858,-0.3073800,-0.1427427,-0.2755414,0.0692110,-0.2553153,-1.2189974,-0.5177138,-0.4471165,-0.4687715,-0.1470973
0.9719801,-0.3274812,-0.1069865,0.0403264,0.7291750,-0.2420541,-0.6649551,0.7462161,0.6040236,-0.7984682,-0.9541195,0.0571812,-0.5973895,-0.4443026,0.2533406,-0.1974814,-1.3337306,-0.3482814,-0.3384767,-0.4061359,0.0929474
1.7291645,-0.2869817,0.1072909,0.7705435,0.7557593,-0.2209333,-0.1036020,0.6907213,0.1740310,-0.1073600,-1.1505634,0.0518511,-0.3933124,-0.2816076,0.6324102,-0.1321801,-1.4907573,-0.2121216,-0.1917069,-0.3327750,-0.0319715
1.8167534,0.2220462,0.6759816,0.8087748,0.8896372,-0.3411728,-0.1545537,1.2176282,0.6314130,-0.3057863,-0.8082773,-0.0318211,0.0357694,-0.3086256,0.6425918,0.2310548,-0.8060052,-0.0824765,0.0660734,-0.4790162,0.2706460
1.0563120,-0.0109972,-0.1591026,0.3200916,0.7091504,-0.1160146,-0.2216392,0.9715045,0.3609093,0.1351880,-0.5042498,0.1282449,-0.1277112,-0.2546351,0.5993748,0.4085871,-0.6118925,0.0715114,0.1755084,0.0783523,0.3201003
0.7261711,0.0134510,0.2436662,0.7261130,0.2367454,-0.4100144,0.0495356,0.8756711,0.5299587,0.3606266,-0.7202628,0.4850715,-0.1200879,-0.2547053,1.0215336,0.4060118,-0.9278719,0.1542423,0.4000046,0.1581565,0.2772188
1.1148052,0.1633511,0.3981870,1.0660155,0.5797424,-0.6507041,0.2798088,1.3212957,0.5795571,0.8098817,-0.8530685,-0.1170265,0.1367776,0.1006444,1.2040180,0.6331025,-0.7289382,0.3142631,0.7372131,0.3022373,0.5231043
1.1222115,0.3543130,0.6179761,0.7876950,0.6605289,-0.2537135,0.5601403,1.2008410,0.6896645,0.2900291,-0.8628455,-0.4215979,0.4861231,0.4603741,1.1289152,0.4358823,-0.6670483,0.2129422,0.3843068,0.3652341,0.3640274
0.5879176,-0.0898600,0.5544316,0.4714794,0.4170043,-0.1816113,0.2653341,0.6612716,0.7094974,-0.0757067,-0.9184027,0.1591061,-0.0543690,0.3066394,0.9521471,-0.2775757,-1.0380542,0.2040597,-0.0853200,0.2673144,0.2996328
1.0121183,-0.2223356,0.3468823,0.2129771,0.1109900,-0.8399885,0.1365149,0.5883976,0.2218179,-0.8526571,-0.9246811,-0.3337903,-0.1434340,-0.0073665,0.7282177,-0.1702549,-0.9324986,0.2345177,-0.0680911,-0.0001898,0.1401169
0.7242375,-0.1989646,0.3061662,-0.2242933,-0.1946080,-0.2741656,0.1866437,0.7113059,-0.0460839,-0.2553801,-0.7412853,-0.4321332,0.3037441,0.3235180,0.7883828,0.2606172,-0.6473733,0.2192346,0.1220898,-0.1541193,0.0435802
0.3889682,-0.6429443,0.3513278,-0.3822004,-0.4771141,0.2607394,0.2275589,0.4796003,-0.1283174,0.0469809,-0.4314059,0.4779833,0.5645142,-0.0012666,0.4642041,0.2777158,-0.5175016,0.1672406,0.0042679,-0.0729042,0.2985239
0.4082943,-0.3444806,1.0389422,0.4712654,0.4201184,0.2632070,0.5522925,0.6401256,0.4740022,-0.4081532,-0.7194120,0.1690659,0.5568879,0.4534679,0.5436562,-0.1401486,-0.6012156,0.5756571,0.1211007,-0.0984924,0.4607040
0.5175612,0.6442643,1.2568377,0.6097336,0.5119120,0.5857380,0.5808188,0.8482467,0.4454182,-0.2717616,-0.9250947,-0.2002280,0.0254601,0.7378566,0.7883000,-0.2048184,-0.9703026,0.5416634,0.0088915,-0.3438206,0.2177674
0.8673844,0.1997233,1.2177297,0.7414264,0.4869257,0.5320237,0.4667661,0.9886564,0.3985725,-0.4896930,-1.0282320,-0.1389293,0.1690661,0.0029230,0.6571323,0.1050699,-1.0819675,-0.1656466,-0.0334806,-0.6363901,-0.0172583
0.8727692,0.3883501,0.8785211,0.6732055,0.2581672,0.4129816,0.1657645,0.7742082,0.3645546,0.0956858,-1.0869805,0.2817464,0.1838444,-0.2464045,0.1851804,0.1764553,-0.8287815,-0.3116936,-0.2461923,-0.5791173,-0.3520733
0.4927749,0.1329462,0.8106195,0.6428882,0.0008384,-0.2927255,-0.4139512,0.5662371,0.1048139,-0.0860575,-1.1924170,-0.1300535,0.1751936,-0.3126541,0.3911234,-0.2151509,-0.7606044,-0.1110757,-0.4884071,-0.5991531,-0.1826993
0.0024364,-0.2163132,0.1874512,0.0660971,1.2598327,-0.3537261,-0.5344195,0.8955178,0.2021668,-0.1994765,-1.0742874,-0.3105713,-0.1654604,-0.3155992,0.5281353,-0.3522524,-0.5644612,-0.3329170,-0.2637059,-0.4325359,-0.1134734
0.1656532,-0.5339275,0.2004425,-0.4651257,0.9756517,-0.1356443,-0.5922932,0.7531754,0.0497576,-0.0402752,-1.2692013,0.2097870,-0.2054150,-0.0299608,0.1428949,-0.1288544,-0.7191849,-0.4341081,-0.3136573,-0.2804247,0.1145512
-0.2582757,-0.7640699,0.3145094,0.0150360,0.3539881,0.1239542,-0.1892598,0.6624755,-0.3551311,-0.2669798,-1.3651841,0.2111194,-0.2014378,-0.0549683,0.1181796,-0.1956757,-1.2996410,-0.1797123,-0.1436388,-0.2631891,-0.0034198
-0.5369959,-0.3484721,0.9442688,0.3075631,-0.0546918,0.6791008,-0.2781548,0.6316601,-0.3625442,-0.8561886,-1.2100780,-0.2087141,0.0748096,0.0599294,0.3211990,-0.3827019,-1.1291703,-0.0735666,-0.1243067,-0.4509623,0.0609619
-0.6301800,-0.3238774,1.0795790,0.1053199,-0.1652519,0.2070855,-0.2186931,0.3948359,-0.2245951,-0.8517970,-1.1465495,-0.2132353,0.0550201,0.3129388,0.2049758,-0.2577808,-1.3381065,0.0072856,-0.3683885,-0.2436008,-0.0047859
-0.7075046,-0.3528875,0.8165779,-0.1278000,0.1189474,-0.2507464,0.3592042,0.2245478,-0.5617713,-0.9564481,-1.0899670,0.1056604,0.0832403,0.1121771,0.3284519,-0.4780877,-1.2155912,0.2430738,-0.1664805,-0.1707874,-0.1069575
0.0962873,-0.2109243,0.7393101,-0.4041668,-0.1491989,-0.6618410,0.1467309,0.4837416,-0.3849260,-0.8656182,-1.3254794,-0.4968350,-0.0718915,0.1223334,0.3902763,-0.8108097,-1.4665911,0.1683045,-0.0269971,-0.1590294,-0.1880921
0.1104632,-0.0243863,0.8414239,-0.0548918,0.0735054,-0.6193978,-0.2097048,0.4846746,-0.5146905,-1.0954345,-1.4518000,-0.8998169,-0.4990310,-0.0251556,0.1854584,-1.4086484,-1.7575262,-0.4854490,-0.4198620,-0.9065053,-0.3962213
-0.0727439,-0.1289329,0.4994517,-0.6379262,0.0021853,-0.2733507,-0.5259271,0.1401334,-0.6035311,-1.6815764,-1.7152313,-0.6477393,-0.4325244,-0.1014490,-0.1359498,-1.6323037,-2.0122781,-0.5294985,-0.6028710,-1.0092963,-0.5667281
-0.3716533,-0.1087955,0.4711332,-0.7410340,-0.5802785,-0.3129357,-0.8444894,0.2780525,-1.2771554,-2.5277631,-1.7805369,-0.8821959,-0.5491894,-0.2667730,-0.3835717,-1.1477047,-1.9764854,-0.7154647,-0.9997132,-1.0534803,-0.7159945
0.0835651,0.0287491,0.6925375,-0.6466650,-0.5771554,-0.0018016,-0.8188726,0.1214428,-1.3360689,-2.0480247,-2.0078995,-1.0603057,-0.9210452,-0.6519528,-0.5914362,-1.2202203,-1.8129188,-0.8474461,-1.0156893,-1.5314863,-0.7085055
-0.1259688,-0.4317317,0.9960134,-1.0290912,-0.7246884,-0.0602275,-0.4237929,-0.0503373,-1.0467341,-1.9827702,-1.7506478,-0.5742482,-0.2751679,-0.5588990,-0.4722894,-1.1866138,-1.9781332,-0.6006244,-1.0421617,-1.3166997,-0.6096614
-0.2878835,-0.2730213,0.9008640,-0.8761069,-0.8977398,0.0205341,-0.2710001,0.1628272,-1.3125073,-2.1920731,-1.4860032,-0.3340503,-0.2214585,-0.2774249,-0.4706162,-1.2789716,-1.6121913,-0.4864944,-1.1684006,-1.2068068,-0.3735360
-0.6193160,-0.0521229,1.4860646,-0.8775570,-1.2973444,0.2304043,-0.2414049,0.3530257,-1.3292820,-2.5272882,-1.3082360,-0.5978093,-0.2393697,-0.1336942,-0.4857924,-1.4217575,-1.1025473,-0.3097017,-0.9782444,-1.0878121,-0.4963807
-0.8587470,-0.4217771,1.2671297,-1.3658298,-1.8372183,0.1443229,-0.1649779,-0.0147472,-1.3889325,-2.4370332,-1.3110831,-0.6507933,-0.0782982,0.0426755,-0.4602393,-0.9521798,-0.8520203,0.0368428,-0.8971003,-0.7441887,-0.3349390
-0.6780854,-0.9880337,0.8239726,-1.1717371,-1.6813356,-0.1697624,0.1263061,-0.1582372,-1.2938234,-2.3102679,-1.2436014,-0.1718507,0.1276327,0.2968598,-0.5769807,-0.9243119,-1.0898031,0.1787002,-1.0721060,-0.8170265,-0.4060651
-0.5428370,-0.9410383,0.3407525,-1.2974348,-0.7556357,-0.2865658,-0.0838541,-0.0695949,-1.2210313,-1.8774040,-1.0897508,-0.6130559,-0.2166926,0.1843875,-0.3147348,-0.6174945,-0.7449152,0.1817399,-0.9095928,-0.9257674,-0.2887035
-0.1982763,-0.7616154,0.1371751,-1.2157922,-0.8930439,-0.4934749,-0.1455627,0.0941311,-0.8063835,-1.2967975,-0.8836741,-0.6873370,-0.5846663,0.0067403,-0.2936131,-0.5900300,-0.8317172,0.1037161,-0.6919131,-1.0660592,-0.4153652
-0.0015069,-1.0820274,0.5420230,-0.6673855,-1.2268867,-0.6267237,-0.2516176,0.0964412,-0.8215218,-1.3230100,-1.5843925,-0.1697246,-0.4544435,0.3825936,-0.4875546,-0.8541541,-1.0112591,0.0936311,-0.5419080,-0.7262385,-0.3735365
-0.0032559,-0.9990916,0.1231604,-0.0999247,-0.7981229,-0.2285296,-0.2859646,0.2866544,-0.8621162,-0.9578140,-1.6655502,-0.5900229,-0.5033925,0.1850720,-0.1747617,-0.7500745,-0.7355459,-0.0303831,-0.3929117,-0.7676663,-0.7496652
-0.0862848,-0.7950296,-0.3104783,-0.4653634,-0.1997349,-0.2363525,-0.3514570,0.3353187,-0.6491570,-1.2686553,-1.3267294,-0.6301302,-0.4995215,-0.1949389,0.0705645,-0.4577272,-0.6437296,-0.3151771,-0.2554709,-0.6421022,-0.5757027
-0.7103015,-1.0587863,-0.5150572,-0.6513818,-1.0632308,-0.5552878,-0.5554318,-0.0030419,-0.8301744,-0.4725476,-1.3515285,0.2101052,-0.4005835,-0.3107489,0.2973952,-0.6043344,-0.7177652,-0.3539789,-0.2919737,-0.3321184,-0.5053775
-0.9855500,-1.0320222,-0.3172565,-0.6084421,-1.0557004,-0.4839116,-0.6782181,0.1818674,-0.7894984,-0.7624267,-1.2570755,0.3855808,-0.6647293,-0.4859684,0.3197507,-0.0545119,-0.3039228,-0.0628684,0.1366789,0.2045084,-0.2860813
-0.4661523,-1.1778826,0.1082236,-0.0815798,-0.3331243,-0.1796067,-1.0022705,0.4632353,-0.3967993,-0.1418281,-0.7301840,0.0054668,-0.5467252,-0.8914574,0.7155733,0.4123706,0.2724758,-0.0465615,0.5186664,0.7356042,-0.1953641
0.1425305,-0.8005505,-0.2629116,-0.5405267,-0.1138563,-0.6412728,-0.8654199,0.5595905,-0.2856905,-0.0809208,-0.8615873,0.3604837,-0.1584771,-0.7446314,0.5742616,0.4136631,-0.0982605,-0.0354687,0.2983806,0.5220548,-0.1649961
-0.6148089,-0.9154335,-0.1091854,-0.7089157,-0.9630734,-0.5856803,-1.0338453,0.4274520,-0.2611505,-0.3633111,-0.9743807,0.3690063,-0.2161358,-0.5640243,0.4848075,0.0911219,-0.2203127,-0.3078768,0.3183701,0.2731943,-0.1605469
-0.5108429,-0.9175010,-0.2010844,-0.7076837,-0.3789631,0.0316343,-1.2592986,0.2772202,-0.6871477,-0.0827983,-1.1061842,-0.3415210,-0.5047549,-0.8418971,-0.0861573,0.0750483,-0.6804115,-0.4945709,-0.0468102,0.0356130,-0.2743276
-0.8990312,-1.3523422,-0.2165421,-1.3094038,-0.4352587,-0.1229649,-1.4815664,-0.1008753,-0.9223098,-0.7952271,-1.2604122,-0.5902803,-0.4756599,-0.6300365,-0.7530767,-0.6378028,-0.9113663,-0.5319757,-0.5336044,-0.3163241,-0.3772397
-0.5158537,-1.0009271,0.0865926,-0.9739648,-0.2239191,-0.2031510,-1.1210477,-0.3060199,-0.7541398,-0.7175485,-1.4891882,0.0889078,-0.4175123,-0.5605140,-0.3281996,-0.6307968,-0.6556477,-0.0075597,-0.6852744,-0.6053455,-0.0784159
-0.4717730,-0.5761816,0.3053403,-0.8006880,-0.1651557,0.0827955,-0.7003855,-0.0551537,-0.5982142,-0.5726947,-1.5363899,0.0342821,-0.3296520,-0.2053093,-0.0214885,-0.0950318,-0.3132588,0.7022579,-0.5112159,-0.0989091,0.2764773
-0.0867547,-0.8013521,0.0159041,-0.6222681,0.0092666,0.0611051,-0.5566489,0.2094200,-0.4945148,-0.3232801,-1.2378011,-0.4156478,0.1367246,-0.0722296,0.4140808,0.5234703,0.1908415,0.5818430,0.1051270,0.5061454,0.5036046
0.2993857,-1.0533458,0.1450731,-0.6649937,-0.0512703,-0.4108481,-0.2604520,0.3421406,-0.0514392,0.4720171,-1.2898180,0.3491979,0.0779997,0.1907081,0.8175139,0.4559199,0.0898418,0.2730390,0.1795903,0.5286031,0.5892198
0.8971989,-0.5155804,0.6449440,-0.0015601,-0.1171000,-0.7472731,-0.1687702,0.4381718,0.4278604,0.3248355,-1.1827850,0.1513973,0.2987202,0.1853969,0.8167045,0.3937922,0.2782226,0.6690217,0.2422699,0.5937394,0.6603453
1.4810262,-0.5357349,0.2854285,-0.2427427,0.1579229,-0.3807382,-0.1822223,0.7303789,0.3000175,0.6033340,-1.2451081,-0.1961237,0.4008696,0.3100734,0.6212903,0.5912371,0.1652149,0.4730909,0.3918751,0.4437748,0.6800995
0.8226307,-0.5666230,0.1890643,-0.5388767,0.0638828,-0.2131427,-0.5573846,0.3616393,0.3414252,0.8305551,-1.2298042,-0.2042745,0.2280504,0.3618888,0.1184652,0.1612631,-0.1194064,-0.2702990,0.0416430,0.1234236,-0.0004879
0.0503056,-0.7596810,-0.4863111,-0.2569499,-0.5520450,-0.6587766,-1.1812760,0.2816483,0.0117884,0.0364626,-1.3336408,-0.2749185,-0.2804536,-0.5216188,-0.4984319,-0.2884045,-0.2933692,-0.4620636,-0.3422998,-0.1831969,-0.4470349
-0.1185059,-0.5621428,-0.9103068,-1.1374034,-0.6094603,-0.9028824,-1.6521362,0.3691517,-0.5288211,-0.5313598,-1.2705915,-0.8060909,-1.1820743,-1.1684924,-0.5944929,-0.3669840,-0.7131708,-1.0085733,-0.4292645,-0.6134637,-0.6363626
-0.7486506,-1.2664975,-1.5160643,-1.8600700,-0.3317569,-1.3873430,-2.2299409,-0.0313371,-1.1367441,-1.3162520,-1.4405199,-0.9565014,-1.6307285,-2.0092888,-0.8331180,-0.9059543,-1.5349826,-1.8652252,-0.7062001,-0.8722459,-1.1487263
-1.3027320,-1.4923756,-1.8073871,-1.6375576,-0.7835730,-1.2854011,-2.6365168,-0.3498078,-1.5607001,-1.0676683,-1.3211486,-0.7850164,-1.7377467,-2.2029819,-0.8174113,-1.3102820,-1.5689422,-1.9220277,-1.1082606,-0.9243167,-1.1172929
-1.2464520,-1.3537915,-2.1305957,-0.9764962,-0.2055162,-1.7135714,-2.5239329,-0.0845264,-1.4414968,-1.3365122,-1.1463691,-0.7824799,-1.6590724,-2.4730022,-0.3275037,-0.9083257,-1.2885405,-1.5654316,-0.6743241,-0.8653255,-0.8617210
-1.1885571,-1.1674641,-1.4172454,-1.0708547,-0.1953723,-1.4503392,-1.9842443,0.0225582,-1.0767938,-0.8359835,-1.1109360,-0.8692598,-1.4111489,-2.0989857,-0.3447143,-0.2788974,-0.4613105,-1.2323732,-0.4164422,-0.3830327,-0.4952113
-1.0646925,-1.3207272,-0.9723295,-0.8966490,-0.4535503,-0.3839277,-1.8062050,0.0228946,-0.3775956,-0.0588452,-0.9808504,-0.0796635,-1.3457956,-1.7762753,0.0102399,-0.1768309,-0.6398451,-1.2270240,-0.2696336,0.1407293,-0.3603898
-0.8181037,-1.1340232,-1.0916661,-0.8546164,-0.1143385,-0.7503231,-1.5401802,0.1854655,-0.3292193,0.1881361,-0.8183144,-0.0052920,-1.2388445,-1.5373158,-0.1806319,-0.0968471,-0.7671816,-0.9815225,-0.1146429,0.1617322,-0.1933780
-1.2259041,-1.1641470,-1.4983457,-0.4505181,0.5176642,-0.9600279,-1.4520445,0.2269152,-0.4539721,-0.1746861,-0.8162427,-0.6896490,-1.3847810,-1.3005728,0.0855385,-0.4182239,-0.7559943,-1.0514939,-0.0854011,0.1557395,-0.0263451
-0.5610687,-0.7842535,-1.2272087,-0.1999661,0.3571510,-1.0976648,-1.3411782,0.3551039,0.0777578,-0.2705869,-0.8541619,-0.5275465,-0.9528245,-0.9064683,-0.2407776,-0.1510340,-0.7765378,-0.8218079,-0.1524916,0.0829338,-0.1732116
-0.3504311,-0.8551776,-1.3726829,-0.6777620,-0.0946951,-1.0504392,-1.2549785,0.4573714,0.0344921,-0.3651487,-0.9237537,-0.2445637,-1.2213721,-1.0075626,-0.2281263,-0.2974986,-0.5941577,-0.3091649,-0.6870544,-0.2569748,-0.4571606
-1.0383750,-0.5066883,-1.2868261,-1.7828971,-0.2375952,-1.1388669,-1.2607576,0.3804654,-0.5113057,-0.4409618,-1.0865685,-0.4679915,-0.9315047,-0.8192642,-0.1831011,-0.4305960,-0.5725232,-0.3328951,-0.6961163,-0.6661625,-0.2062026
-0.8212929,-0.7558670,-0.5985268,-1.0175653,-0.3473935,-0.8068541,-1.0078703,0.0971870,-0.6845080,-0.6193269,-0.9301965,-0.0630800,-0.4558512,-0.6809777,-0.1172154,-0.2753964,-0.3663494,-0.1985290,-0.8681784,-0.3839327,0.0125858
-0.3255482,-1.1409713,-0.5200068,-0.1912507,-0.4058958,-0.3713919,-0.6269595,0.0153653,-0.4549100,-0.1309507,-0.6461452,0.2419983,-0.0562669,-0.5692415,-0.1649497,-0.0988329,-0.3091025,0.0301364,-0.6784837,0.0581554,0.1257564
-0.2055579,-1.0678149,-0.5602332,-0.1721617,0.0448816,-0.5659758,-0.5146054,-0.0089697,-0.4920288,0.2778664,-0.7355456,-0.2890257,-0.1743717,-0.5277455,0.0638118,0.0404051,-0.0792760,0.3953705,-0.5427633,0.2516956,0.0873639
0.2028201,-0.7983384,-0.3277753,0.4960102,0.5319645,-0.7254352,-1.0672622,0.2852547,-0.0724179,0.5985351,-0.6555507,-0.4888855,-0.3350468,-0.5658460,0.0102798,0.1983935,-0.4447531,-0.0970559,-0.5093955,-0.0393703,-0.1607828
0.1018500,-0.7242731,-0.9161229,0.0696438,0.3971809,-0.6191970,-1.0489055,0.3014565,0.2236979,0.5368001,-0.4642393,-0.1813980,-0.3995897,-0.6019979,0.2614630,-0.0042581,-0.6081070,-0.1636206,-0.2799016,0.1552088,-0.0456477
0.1176709,-0.7277792,-0.6366879,-0.0078411,-0.0396820,-0.9177049,-1.0610073,0.5209094,0.1475177,0.4578206,-0.3844190,-0.2901990,-0.3291616,-0.5942177,0.1846579,0.2148045,-0.3139828,-0.3544298,-0.1557424,-0.0906697,-0.0202473
0.0353890,-0.8113526,-0.8817852,-0.3119089,0.0604653,-0.6507519,-1.1161687,0.4734172,-0.0469503,-0.4484703,-0.3965039,-0.7871261,-0.4600921,-0.7598121,0.1033063,0.1296455,-0.4166131,-0.5408915,-0.2332805,-0.0495903,-0.2621635
-0.1074917,-1.5558759,-1.1287017,-0.6002581,-0.2255707,-0.1431761,-1.6056589,0.1725041,-0.2820081,0.1060767,-0.5421038,-0.4493820,-0.6715525,-0.9643598,-0.4906527,-0.3759779,-0.6262881,-1.0062342,-0.4996249,0.0988140,-0.4676564
0.1579406,-1.6049247,-1.3241950,-0.1152083,-0.1187007,-0.5396670,-1.7004948,0.2758009,0.0427739,-0.1439971,-0.5122440,-0.6177604,-0.7113076,-1.0677502,-0.2934811,-0.3187583,-1.1157411,-1.2445250,-0.7384998,-0.1051772,-0.3789489
-0.0152401,-1.2986885,-1.7674669,-0.0674639,0.0786439,-0.5347404,-1.8703067,0.2705969,-0.1424835,-0.5250140,-0.5319659,-0.9403796,-1.4105152,-1.4578365,-0.1436801,-0.0698255,-0.7093478,-1.3418878,-0.6640018,-0.0708584,-0.2470639
-0.5218445,-1.1887448,-1.8032959,-0.6246211,-0.0169339,-0.7290816,-2.3673134,0.0276379,-0.2335157,-0.2256889,-0.5449804,-0.9622495,-1.6202137,-1.7756115,-0.1193239,0.1304211,-0.3392752,-1.3160046,-0.5464172,-0.0714593,-0.3157447
-0.6080926,-1.1894587,-1.2705512,-1.0424410,0.1994789,-1.0678670,-2.0836787,-0.1774080,-0.2055676,0.1411493,-0.5995244,-0.3718494,-1.4801315,-1.6351634,-0.0841163,0.1069018,-0.6077394,-1.3101904,-0.4706858,0.0283817,-0.4787121
-0.0109373,-1.0177966,-0.7394837,-0.1200075,0.2967104,-0.3302313,-1.6697760,0.2980156,-0.1256472,-0.3365856,-0.6450331,-0.3006468,-1.1708241,-1.5716671,0.3357225,0.3671353,-0.4975986,-0.7652588,-0.1542202,0.0762221,-0.3660204
0.7217633,-0.7999612,-0.5265145,0.5569901,0.4571206,-0.5081022,-1.4264984,0.6197624,0.3012023,0.0360808,-0.5752020,-0.7400613,-0.8003303,-1.0747356,0.6960787,0.3029579,-0.4048864,-0.5929319,0.1307340,0.0609003,-0.3287862
0.5529833,-0.8800998,-0.3901246,0.1993625,0.5859034,-0.9045853,-1.2520517,0.5438815,0.3247523,0.0724685,-0.4557780,-0.2977723,-0.6734879,-1.0359019,0.0656418,0.0741141,-0.6788917,-0.3088577,-0.1810039,-0.0849603,-0.2045653
-0.4247078,-1.1265763,-1.1691091,-0.2584131,-0.5136256,-0.5254440,-1.1227150,0.2176425,-0.0319641,-0.7312915,-0.6143821,-0.2758344,-0.7867891,-0.9252715,-0.2938522,-0.5108597,-0.9170481,-0.1577249,-0.6505239,-0.4493767,-0.2431146
-0.3349478,-1.0659980,-0.5667614,-0.3936319,0.1576298,-0.3938440,-1.2974014,0.2087519,-0.3530268,-1.3858031,-0.9386324,-0.8073885,-0.6270342,-0.7068135,-0.1382127,-0.4232319,-1.2590228,-0.1818426,-0.5977848,-0.5507442,-0.4260664
-0.0648197,-0.9721631,-0.2135501,-1.1946589,0.1812162,-0.7312437,-0.9993190,0.0614558,-0.5453898,-0.4751202,-0.9911589,-0.7807721,-0.6100464,-0.7064144,-0.2275519,-0.2155972,-1.1455539,-0.0459468,-0.6334847,-0.6342966,-0.4093196
-0.2253254,-1.3049909,-0.5366285,-0.7591504,-0.0496275,-0.5565354,-0.6795830,0.0046240,-0.5877560,-0.8377830,-0.7505706,-0.3903982,-0.5265648,-0.7142213,-0.3623836,-0.4748482,-0.8164191,0.0586151,-0.6093772,-0.4835021,-0.0898009
-0.1915553,-0.6548240,-0.3310807,-0.2914184,-0.4309665,-0.1671283,-0.9351411,0.1761111,-0.2689498,-0.7569541,-0.6935123,-0.4628486,-0.1197866,-0.3722679,-0.3787267,-0.2890517,-0.5527563,0.0614433,-0.6625316,-0.2592688,-0.1702008
-0.2361213,-0.3651680,0.2487893,-0.8393300,0.0635842,-0.0305028,-0.6846204,0.4164799,-0.3371397,-0.1047707,-0.6143429,-0.3112114,0.0559611,-0.0675619,-0.2743399,-0.1761087,-0.3545541,0.1749416,-0.6205074,-0.1883738,-0.2299100
0.2303140,-0.5995327,-0.0861819,-0.2919452,-0.1458022,-0.2416389,-0.6109641,0.2621766,-0.0382524,-0.4710604,-0.5752146,-0.1861582,-0.2379104,0.0888582,-0.1422609,-0.2338126,-0.4086924,0.1164293,-0.4641966,-0.2506475,-0.1216248
0.9516825,-0.1245015,-0.2097949,0.1063865,-0.3267947,-0.3904029,-0.6972433,0.2110945,0.2222757,-0.0719168,-0.8832328,-0.8614486,-0.3030205,0.0144550,0.1616007,-0.0439993,-0.4943304,0.3196656,-0.4417736,-0.2211985,-0.1926578
0.7886269,-0.2144721,0.0959901,0.1819829,-0.2880585,-0.0461535,-0.7046781,0.6023976,0.3698179,-0.1963006,-0.6469333,-0.8596826,-0.2659368,-0.2362064,0.3309539,0.0815434,-0.4582475,-0.0587985,-0.1391208,0.3009773,-0.2222563
1.0166452,-0.5805773,0.1491500,0.1847815,-0.5522723,-0.6217657,-0.8305870,0.4299321,0.4929332,-0.1319495,-1.0696875,-0.7086097,-0.7195972,-0.5107744,0.3502862,-0.2269149,-0.5139360,-0.3740121,-0.2357736,0.2771754,-0.2108609
0.5726818,-0.7261164,-0.4367244,-0.1981848,0.0737075,-0.7074515,-0.9071010,0.3332120,-0.1102660,-0.3729380,-0.9814667,-0.8454687,-0.7820516,-0.9355661,-0.1667493,-0.0628926,-0.7299979,-0.5208008,-0.3477150,-0.1625763,-0.5216833
0.2520827,-0.8567820,-0.2844560,-0.1657752,-0.1580482,-0.2015943,-1.0918647,0.3216229,-0.3415765,-0.8068882,-0.8250356,-1.2034248,-1.2112468,-0.7450798,-0.3510602,-0.6614155,-0.7827412,-1.0134866,-0.8102836,-0.4946842,-0.8217079
0.0637564,-0.5353507,-0.4655366,-0.4338697,0.3419910,-0.2539392,-1.1130872,0.1406740,-0.0844890,-0.9759091,-0.8822342,-0.6284552,-0.6428241,-0.6621466,-0.4394836,-0.5016446,-0.5238816,-1.0737660,-0.8568701,-0.5265852,-0.6409222
0.0813444,-0.9029575,-0.5437264,-0.2834430,0.0039875,-0.7480007,-1.2452788,0.1683432,-0.4864637,-0.3073536,-0.6426273,-0.5961565,-0.6943398,-0.7757009,-0.5048324,-0.3041898,-0.4307655,-0.8084393,-0.7986295,-0.5161909,-0.6216653
0.0313479,-0.9779800,-0.6193746,-0.1071692,0.3147516,-0.3563257,-1.0515496,0.4516875,-0.5304466,-0.7838070,-0.5605181,-0.7237515,-0.6342806,-0.7852359,-0.2332930,0.0067302,-0.2620938,-0.5307506,-0.6682991,-0.2371524,-0.4300844
-0.1479934,-0.8247605,-0.5261270,-0.5566354,-0.0113762,-0.3110324,-0.7922586,0.4512644,-0.3006032,-0.2195774,-0.4592048,-0.6361009,-0.1488961,-0.4500473,-0.4939639,0.1349859,-0.0683316,-0.0088212,-0.4368052,-0.0697681,-0.1937879
-0.5633386,-1.0875909,-0.5888578,-0.7215529,0.0097089,-0.4119264,-0.4929546,0.1581220,-0.4288533,-0.0701297,-0.5071306,0.1649491,-0.3312800,-0.1068467,-0.2753933,-0.1016759,-0.2626085,-0.0573969,-0.6460520,-0.2746102,0.0633215
-0.3077854,-0.9963412,-0.4019721,-0.3525555,-0.1862456,-0.2935456,-0.0351511,-0.0379179,-0.8416619,-0.0881694,-0.7696022,-0.3278340,-0.0699791,0.0175893,0.0284671,-0.3754798,-0.2874438,-0.2551187,-0.6513665,-0.2190304,0.2805583
-0.3385349,-1.3756039,-0.4193160,-0.1235906,-0.3277997,-0.3005681,-0.2360078,0.2317691,-0.8827552,-0.1717416,-0.7683595,-0.6936212,-0.0189112,0.1315161,-0.2615030,-0.1248657,-0.2496119,-0.2487289,-0.7494428,-0.2521538,-0.0377676
-0.8094504,-1.5423100,-0.4403920,-0.6247254,-0.4076913,-0.3692065,-0.8043353,0.2339009,-1.0383320,-0.1311616,-0.8306835,-0.4094354,-0.2191408,-0.0425570,-0.6956124,-0.3130810,-0.7681483,-0.7935439,-0.8480111,-0.5119081,-0.5775692
-1.2980808,-1.5333085,-1.3350903,-0.9482616,-0.6393051,-0.2788443,-1.2972032,0.0569793,-1.1627812,-0.1483318,-0.5227828,-0.1833885,-0.8881313,-0.5346958,-1.0056251,-0.4205021,-0.9914815,-0.8465974,-0.8728340,-0.5688006,-0.7429902
-1.1013492,-1.4538167,-1.3559098,-0.8320933,-0.6672603,0.0566878,-1.4655473,0.0007012,-1.0354337,-0.0860733,-0.1209318,-0.5617769,-1.0640385,-0.7631245,-1.0160453,-0.4064329,-0.7675106,-0.9879969,-0.8707515,-0.7354382,-0.6325340
-1.2482189,-1.5554831,-1.4767110,-1.2108722,-0.3831184,-0.6627088,-1.4346330,-0.2118505,-0.9144996,-0.1529004,-0.4846401,-0.6664575,-0.9363420,-0.9667137,-1.1543825,-0.4306532,-1.0847721,-0.9221774,-1.2852075,-0.7101211,-0.6393260
-1.4411787,-1.4121946,-1.1786534,-0.8182107,-1.0055319,-1.3175312,-1.4435463,-0.1869304,-1.1495540,-0.5935999,-0.7397041,-0.5170828,-0.9413015,-0.7661467,-1.1463361,-0.3678852,-0.9206699,-0.7926933,-1.4860325,-0.7618411,-0.7961910
-0.1154430,-0.9528297,-0.8696605,-0.4207402,-0.0637499,-1.0467876,-1.2762604,-0.0493012,-0.8510388,-0.1227258,-0.8312066,-1.1907076,-0.7893255,-0.6078560,-0.5290394,-0.2644455,-0.7102425,-0.3844272,-0.8905246,-0.6678468,-0.6116803
-0.3080962,-0.9824816,-1.1272936,-0.5878899,0.2193200,-0.4717918,-1.1007786,0.3253114,-0.5520875,0.1836788,-0.7108065,-0.7327037,-0.8384504,-0.4245366,-0.2826204,-0.1206791,-0.5784035,-0.7413603,-0.6990505,-0.7054693,-0.7579913
-0.6572583,-1.2524449,-0.7029076,-0.3029753,-0.0631754,-1.1755092,-1.0517945,0.2019210,-0.8691800,-0.1470467,-1.0361403,-0.7276971,-0.9799985,-0.6096204,-0.2338184,-0.4640265,-1.0121567,-0.8421279,-0.7983634,-0.6290499,-0.8598880
-0.3002082,-1.0729080,-1.1269758,0.0456726,-0.5846621,-1.5192871,-0.8975635,0.0262565,-0.9521638,-0.2416445,-0.9811468,-1.0992913,-1.3433398,-0.7283424,-0.2985215,-0.6061389,-1.2804984,-0.8821106,-0.9721094,-0.7322630,-0.7611274
0.0164893,-0.7990639,-0.8177096,-0.2279860,0.0690439,-1.1669730,-0.8936831,0.1379014,-0.6258494,-0.4735765,-0.9678488,-1.7423283,-1.1696286,-0.6605947,-0.1231765,-0.4015999,-1.2058609,-0.8443414,-0.6387699,-0.6872389,-0.3921656
-0.0694473,-0.6281706,-1.0020380,-0.0119756,0.6171396,-0.5626761,-1.0068719,0.1804035,-0.4170598,-0.0491386,-1.1386530,-1.3225386,-0.7447796,-0.5066819,-0.1097019,-0.3565782,-0.9205515,-0.6981379,-0.3601787,-0.4747945,-0.2199332
0.5118622,-0.6978960,-1.3567387,0.1778867,0.4590096,-0.6390496,-1.2476231,0.2839309,-0.3257500,-0.1215769,-1.0607868,-0.9180614,-0.6218224,-0.4867620,0.0412177,-0.3131924,-0.5329562,-0.5488841,-0.2680079,-0.1219051,-0.2133967
0.3385358,-0.9914771,-1.8380748,0.5610340,0.3320166,-0.6133324,-1.2157316,0.4674921,-0.0909284,-0.2543483,-0.9812591,-1.2394623,-0.4981144,-0.4794845,-0.2325890,-0.4915068,-0.4745857,-0.6316958,-0.2375220,-0.2139862,-0.3416751
-0.6482517,-1.0894930,-1.8739361,-0.4648701,0.1066949,-0.4964213,-0.9155489,0.1887527,-0.8444707,-0.2095274,-0.9119970,-0.8247409,-0.4181938,-0.5319121,-0.5478140,-0.5373245,-0.5279854,-0.6917952,-0.4166489,-0.2732303,-0.3741134
-0.7387539,-1.1533393,-1.1802046,-0.4784043,-0.6053749,-0.6004811,-0.8492146,0.1117559,-0.9370740,-0.4334680,-1.2534293,-0.7516590,-0.8526576,-0.3852342,-0.4905367,-0.5847708,-0.6018332,-0.6535271,-0.6909773,-0.4168562,-0.2405907
-0.3417083,-0.8768398,-1.1875473,-0.2693458,-0.4490554,-0.4900278,-0.6087471,0.2526305,-0.5645527,-1.0383427,-1.4560235,-1.3153614,-1.3569798,-0.4020551,-0.5365884,-0.4644007,-0.8204669,-0.8348709,-0.6584439,-0.8780519,-0.4016413
-0.2357177,-0.5814925,-0.6718688,0.1575630,-0.1396537,-0.6856350,-0.6838155,0.2025254,-0.2995388,-0.7300799,-1.4381830,-1.0162531,-0.7881036,-0.3979545,-0.4655518,-0.8815244,-1.0689380,-0.8893730,-0.6799768,-1.2331511,-0.3787888
0.0346855,-0.7158154,-0.4464020,-0.2891277,0.2452357,-0.8258798,-0.4224394,0.1817576,-0.5940078,-0.4584614,-1.4182042,-0.6199902,-0.5848852,-0.0173242,-0.5405829,-0.9724502,-0.7653282,-0.4908947,-0.8761466,-1.1126962,-0.3346912
-0.1519063,-0.3244801,-0.2427618,-0.4872500,0.5531648,-0.4769834,0.0188110,0.4754179,-0.2629533,-0.9453033,-1.2924986,-0.6764292,-0.2207122,0.3712783,-0.2020922,-0.3215545,-0.6320448,0.0529417,-0.5171569,-0.4798397,-0.0148908
0.0138400,-0.1850403,0.5997414,0.1166318,0.8479047,-0.4445216,0.1997901,0.7408960,0.3593095,-0.0316163,-0.9656264,-0.6626970,0.3331084,0.5921529,0.0683815,0.1159855,0.1240511,0.1461874,-0.0030761,-0.1165302,0.2422356
0.2946406,-0.2913431,0.4377120,0.3726974,0.4397421,-0.6723151,-0.0297164,0.3939140,-0.0024498,0.0839349,-1.1066248,-0.2327003,0.6088004,0.4786805,0.2272375,-0.1643774,-0.4045405,-0.2166876,-0.1683651,-0.0681203,-0.1317869
0.4715058,-0.2377924,0.4602539,0.6229714,0.4092849,-0.9411587,-0.0430178,0.3923481,-0.4812609,-0.5328557,-1.4143217,-0.7345776,-0.3418386,0.0744146,0.0456492,-0.5521905,-1.1977050,-0.4226801,-0.3073200,-0.8622587,-0.6188708
0.9361880,-0.0473015,0.6157415,0.7874799,0.7193691,-0.9111722,-0.3661439,0.2875588,-0.1338618,-0.8572916,-1.3058997,-1.2508997,-0.5437819,-0.0512717,-0.0139569,-0.4552059,-1.1790454,-0.6864600,-0.4271577,-1.1193845,-0.8223075
0.7929764,-0.1047972,0.4283103,0.2984372,0.3591088,-0.6075422,-0.2327844,0.2289289,-0.0331929,-0.4382594,-1.0340110,-1.0050687,-0.5678910,-0.2481349,0.0171283,-0.5353550,-1.2890168,-0.8416378,-0.8002735,-0.8164446,-0.6666476
0.3838815,-0.5445056,0.0570379,0.1585113,-0.1479201,-0.7681243,-0.2941154,0.0517555,-0.1958015,-0.5879161,-1.3067242,-0.4919699,-0.2987643,-0.2138552,-0.1258825,-0.7660629,-1.0151390,-0.9326383,-0.6504473,-0.5408565,-0.4734990
-0.0962343,-0.3659908,-0.2122459,0.0571545,0.0098443,-0.7910440,-0.4201838,-0.1231602,-0.1336970,-0.8594228,-1.1860803,-1.0347991,-0.0855305,-0.2298696,-0.5396124,-0.4277682,-0.9460143,-0.6754699,-0.6202168,-0.7747588,-0.4540828
-0.2096528,-0.6630201,-0.2397992,0.1842866,-0.3235495,-0.6706111,-0.5237203,-0.1485256,-0.5559704,-0.4954894,-0.9189249,-0.8531910,-0.3242938,-0.2006006,-1.1190215,-0.8057666,-0.5946400,-0.9780725,-0.8955857,-0.7759674,-0.8380609
-0.9674364,-0.8260399,-0.2904801,-0.9041122,-1.2719021,-0.7357951,-0.7003237,-0.5228338,-0.8296551,-1.0140494,-1.2527891,-0.5576676,-0.4933254,-0.5283365,-1.4219203,-1.3424367,-1.1324303,-1.3449446,-1.7430859,-1.0601600,-1.1017188
-1.5345553,-0.7285870,-0.2620909,-1.1645964,-0.6477348,-0.7144696,-0.7859105,-0.5456561,-1.4098824,-2.1142173,-1.1712710,-1.0667791,-0.9834825,-0.8424597,-1.6540146,-1.2826600,-1.5571692,-1.1279765,-1.6745574,-1.1527638,-0.8917874
-0.5659198,-0.6434216,-0.2506005,-0.1849257,-0.3849436,-0.3728293,-0.8295392,-0.0455444,-1.3739402,-1.5288191,-1.3289912,-2.0984795,-1.1629386,-0.8824365,-1.3656772,-1.2841082,-1.6747472,-1.0960015,-1.5915073,-1.2381529,-0.9578367
-0.2190239,-0.6985104,-0.9384193,-0.2610024,-0.7759888,-0.8663429,-1.0563601,-0.4273320,-1.5402442,-0.6999581,-1.5128070,-1.8269478,-0.9746541,-1.0062853,-1.3009003,-1.5868038,-1.8883982,-0.9594022,-1.2842791,-1.4710627,-1.2676071
-0.9147577,-1.0770993,-1.2597152,-0.3225825,-0.9233783,-0.9710287,-1.4582593,-0.6261268,-1.6218618,-1.5231936,-1.8627037,-1.6501095,-1.0479827,-1.2098486,-1.3309929,-1.5786432,-1.7444338,-1.2453452,-1.5686197,-1.7947627,-1.3575944
-0.9821273,-1.2876307,-1.3060496,-0.4032306,-0.6039339,-1.1925603,-1.7237633,-0.4035462,-1.6342808,-1.5312535,-1.5119643,-2.1651878,-1.3833799,-1.4634306,-1.1570076,-1.4988798,-1.5841175,-1.2354982,-1.5130359,-1.8327767,-1.4491402
-0.6983221,-1.3906999,-0.7749302,-0.5019348,-0.7416098,-1.0387088,-1.6479948,-0.3221854,-1.6358707,-1.6822313,-1.3703400,-1.4129459,-1.1598910,-1.0908357,-1.0428799,-1.4214833,-1.7563301,-1.1353080,-1.3996235,-1.7465032,-1.4125382
-0.4010536,-1.0044073,-0.9243401,-0.1101900,-0.3115356,-1.0306300,-1.3633513,-0.2121745,-1.1995366,-1.4402852,-1.6468561,-1.1626149,-1.6110539,-0.9025964,-0.6657181,-1.2336532,-1.6058018,-1.1354307,-1.2624153,-1.5445039,-1.2054929
0.1391369,-0.9598030,-1.1677636,0.0407699,-0.8064969,-1.2595931,-1.2538775,0.2020306,-0.7642264,-1.6660559,-1.7690905,-1.6036732,-1.7840182,-1.0300771,-0.7475134,-1.2951251,-1.0380869,-1.1508392,-0.8324719,-1.2676386,-1.0773333
0.5484089,-1.0363382,-1.3842522,0.2153019,0.1070694,-1.2990315,-1.2721670,0.1631445,-0.3098490,-1.5488787,-1.7963539,-1.6416748,-1.3335257,-0.9696587,-0.9658297,-1.3017604,-1.3320448,-1.0611131,-1.0092472,-1.2488303,-1.0038863
0.8810972,-1.0192252,-1.0594109,0.4435022,0.4985209,-1.1990979,-1.6850638,0.0352615,-0.1850289,-1.3249427,-1.8166183,-0.9480426,-1.5055641,-1.1229759,-0.9893785,-1.2812988,-1.5817127,-1.1532421,-1.0537903,-1.2462211,-0.8028634
0.1929776,-1.1036685,-1.4645689,-0.2135783,-1.0229151,-0.9996315,-1.4620016,-0.0271204,-0.4493459,-1.1802210,-1.6684240,-1.4001034,-1.4491442,-1.0768528,-1.1299467,-1.1643121,-1.0024571,-1.0177919,-1.2155923,-1.3305311,-1.0794556
-0.4733576,-1.1413716,-1.7436458,-0.5425342,-1.2226019,-1.2240641,-1.1348528,-0.0950430,-0.9492328,-1.4799409,-1.5584244,-1.5085694,-1.5473492,-0.9507961,-1.1975689,-1.1788385,-1.4164487,-1.1763833,-1.2346768,-1.5429049,-1.3692801
-0.8999044,-1.4866947,-1.5004534,-0.7380071,-1.3341901,-1.4982291,-1.4942569,-0.1438524,-1.1899568,-1.4502226,-1.8980048,-1.2313241,-1.4159783,-1.1410941,-1.2890836,-1.6179671,-1.8135784,-1.3769934,-1.4169428,-1.4081043,-1.2538208
-0.8337021,-1.5143234,-1.2982993,-0.7971030,-0.8364961,-1.8552557,-1.6864883,-0.0957945,-1.4798483,-1.0323014,-2.0312498,-1.3711909,-1.2296404,-1.3178915,-1.2466573,-1.4884373,-1.4849442,-1.1040822,-1.2528305,-1.1124220,-0.9560012
-0.3830547,-1.3562351,-1.3046486,-0.5703918,-0.6828545,-1.4152714,-1.5167186,-0.0670220,-1.1818192,-1.4257563,-1.3946866,-1.3795184,-1.2353798,-1.2918830,-1.2698387,-0.9850186,-0.9412918,-1.0458826,-1.2343292,-1.0226996,-0.7832129
-0.4900988,-1.6895813,-1.0420569,-0.6559355,-0.3030061,-1.2057390,-1.2652972,-0.3947061,-1.4063036,-0.8537819,-1.4246396,-1.3465871,-1.1832268,-0.9923621,-1.1907194,-1.2561604,-0.8043736,-0.9898217,-1.5392923,-1.0530847,-0.8462962
-0.7669551,-1.9300950,-0.9468053,-0.8803917,-0.6998950,-1.6670417,-1.0331448,-0.4322283,-1.4267656,-0.7313339,-1.7246504,-1.1252514,-1.1357791,-0.6470825,-1.2915156,-1.0786877,-0.9041812,-0.7247752,-1.1049618,-1.1659888,-0.7295390
-0.6827989,-1.6799961,-1.2366465,-0.6423397,-0.6676223,-1.6465929,-1.1398158,-0.1301921,-1.3252782,-1.4106585,-1.7156111,-1.5404919,-0.9709762,-0.9478216,-1.1354986,-0.9131470,-0.9052092,-0.7504737,-1.1560652,-1.1688026,-0.9386011
-0.9733692,-2.4267139,-1.3897300,-1.1331884,-0.6722284,-1.2028594,-1.7595029,-0.3115918,-1.2845229,-1.2733697,-1.6364644,-1.5135727,-1.1967018,-1.2007840,-1.3076074,-1.5541904,-0.8720273,-1.3320806,-1.2966039,-1.1034597,-1.0085815
-1.3728769,-2.4728794,-1.5978030,-1.1911784,-1.4911124,-1.7127990,-1.5828843,-0.5979610,-1.6804216,-1.3975030,-1.7050512,-0.9600059,-1.7111163,-1.3687241,-1.5603855,-1.1725799,-1.2139639,-1.1555898,-1.5134468,-1.5251709,-0.9776143
-1.2468681,-1.9594846,-1.7631950,-0.7799442,-1.5541649,-1.6314114,-1.4766382,-0.3091191,-1.5262581,-1.1652068,-1.4099978,-1.5284377,-1.6578982,-1.1285191,-0.9660463,-0.7301714,-0.9994740,-0.7989306,-1.3223659,-1.2693000,-0.8185796
-0.7678961,-1.7687154,-1.6563480,-0.7990986,-1.0813458,-1.6090358,-1.4440533,-0.0441708,-0.7023684,-1.0874834,-1.3136640,-1.9324735,-1.2241385,-0.8598232,-0.7193757,-0.9566956,-0.5702739,-0.2804325,-1.0134701,-0.7824640,-0.5150705
-1.0622898,-1.3321838,-1.1935244,-0.6872682,-0.7473409,-1.5327997,-1.6083528,0.0943325,-0.6185482,-0.8870784,-1.4028474,-1.2438731,-0.6431900,-0.7326865,-0.9627524,-1.0414790,-0.5024355,-0.7387109,-0.7764384,-0.8139245,-0.7036993
-0.6344818,-1.5170521,-1.3245586,-0.9218599,-0.8771573,-1.4807879,-1.4999768,0.0782925,-1.2712286,-0.9079047,-1.4817008,-1.6327984,-0.9985659,-0.8645800,-1.3149730,-1.5623213,-1.5611436,-1.1036398,-1.1703153,-1.4102026,-1.2244278
-0.7685425,-0.9209986,-0.8230407,-1.4365901,-1.3425004,-1.4179360,-1.6727065,-0.2699543,-1.5329887,-1.4377489,-1.7366803,-2.0154011,-1.6707224,-1.3986920,-1.9589106,-1.8432436,-2.0244253,-1.8084264,-1.8521450,-1.9937054,-1.7657114
-1.0665454,-1.1573243,-0.9210510,-1.8098248,-1.2664851,-1.3344048,-1.9221388,-0.6066869,-1.8214051,-1.4954071,-1.8120872,-2.0343208,-1.6201390,-1.5030668,-2.4749024,-2.2760463,-2.1261048,-1.8976182,-2.1206443,-2.4682019,-2.1466389
-1.6508473,-1.2958646,-1.2693692,-2.0401940,-1.4725919,-1.5159228,-2.1755767,-0.9566581,-2.2364364,-1.2692628,-1.7577659,-1.4589901,-1.8917934,-1.4760282,-2.6270356,-2.2338831,-1.7337406,-1.9292365,-2.5678458,-2.4761534,-2.0145698
-1.6135656,-1.3171552,-1.2821507,-2.0152755,-1.4104540,-1.7296267,-2.1572213,-0.8191875,-2.4985273,-1.6680532,-1.7136762,-1.6374036,-2.2917295,-1.9440023,-2.3452773,-1.9940552,-1.6813210,-1.8679130,-2.4257751,-2.0954022,-1.9146903
-1.5664843,-1.2636075,-1.3364884,-2.2185204,-0.7110757,-1.5772325,-2.1374331,-0.8806635,-2.6932168,-1.8906721,-1.8908061,-1.9283186,-2.3142266,-1.9475844,-2.1488008,-1.8481791,-1.9791490,-1.7685913,-2.2274871,-2.0270953,-1.6498302
-1.4904419,-2.0160019,-1.3148531,-2.0173063,-0.5216343,-1.4634185,-2.1514359,-0.8746897,-2.4370501,-1.9434828,-1.9780077,-1.5331700,-1.9785085,-1.6396171,-1.9609166,-1.9786870,-1.9541092,-1.2666197,-2.1275728,-1.8342018,-1.3178910
-1.2022616,-1.5464529,-1.4900870,-1.9687850,-0.8852130,-1.5548126,-1.7555897,-0.6445276,-2.3832645,-2.0445814,-1.9184836,-1.7671155,-1.7729342,-1.4204036,-1.7008492,-1.9332626,-1.9661206,-1.0938356,-1.7212088,-1.9442737,-1.1749423
-1.0376065,-1.2192510,-1.2078093,-1.4173071,-0.3257964,-1.3180686,-1.8504441,-0.4795076,-2.2943232,-1.8372835,-1.8982775,-1.6755996,-0.9604529,-1.3011163,-1.7039300,-1.8587844,-1.8833417,-1.1657522,-1.9148860,-1.7329756,-1.2388799
-1.4068798,-2.0537982,-1.2684736,-2.2029018,-0.4609341,-1.4299321,-2.3791776,-0.6010207,-1.9418958,-1.6750418,-1.8362169,-1.2163516,-1.0805618,-1.2283069,-1.7449210,-1.8833427,-1.9805527,-1.6967144,-1.7674384,-1.8902959,-1.5677494
-2.1406126,-2.3489349,-1.9259540,-1.4555627,-0.8416814,-1.6550823,-2.3580005,-0.6514219,-2.0346174,-1.9690144,-1.6829091,-1.3868829,-1.6762956,-1.7822063,-1.7471682,-2.2304726,-1.8775249,-1.6086503,-2.0765612,-2.1577334,-1.6046344
-2.3346810,-1.5082878,-1.5290074,-0.9163529,-1.0043501,-1.6518188,-2.0941777,-0.5199872,-2.1228142,-1.1768510,-1.4476303,-1.9148854,-1.8113732,-1.7222919,-1.3976166,-1.9966723,-1.6572100,-1.4243712,-2.0071003,-1.9079145,-1.5074323
-1.7407107,-1.3681948,-1.0691109,-0.8792865,-0.5577375,-1.3320469,-1.8215877,-0.1862559,-1.7905955,-1.1423633,-1.7281301,-1.4168929,-1.7169337,-1.6017032,-1.2409852,-1.6508191,-1.8371477,-1.3353937,-1.6758604,-1.6878276,-1.4849466
-0.6905279,-1.0613825,-0.6801950,-0.8566776,-0.4734790,-1.1628499,-1.3882276,0.2118057,-1.5136422,-1.2625000,-2.2399909,-1.2877100,-1.8305776,-1.4610298,-0.7643215,-1.8117549,-2.2458501,-1.1108110,-1.5491003,-1.8977621,-1.4126500
0.1524039,-1.1971216,-0.5183498,-0.2761528,-0.0934055,-0.9344076,-1.1223317,0.3946626,-1.3821127,-1.3515564,-2.2525461,-2.1724894,-1.6545447,-1.3398440,-0.7647927,-1.7621772,-2.2351768,-1.0716382,-1.3999827,-2.3161263,-1.4193559
-0.2000604,-1.1136740,-0.0903962,-0.5476912,0.3971778,-0.7442258,-1.1959184,0.1792828,-1.0645612,-1.1417509,-2.1804335,-2.0336792,-1.2662506,-1.3390418,-1.1562948,-1.3775185,-1.6241916,-1.0877376,-1.7986873,-2.2372274,-1.5614908
-0.6979107,-1.1142867,-0.4628081,-1.0399042,0.5699413,-1.1269784,-1.5052171,0.0874651,-1.0962367,-1.0213042,-1.7888654,-1.4146613,-1.2586614,-1.1451497,-1.1249210,-1.3076468,-1.7253964,-1.1767596,-1.5413685,-1.7842909,-1.5700135
-1.0166173,-1.1120803,-0.5717241,-0.6682864,0.2372970,-0.9461200,-1.3739220,0.2600083,-0.8077329,-0.5672117,-1.1165090,-1.5458698,-1.1965280,-1.4248909,-0.7274801,-0.5793133,-0.9480110,-1.1251934,-1.3055986,-1.3216068,-1.4733561
-0.6804652,-1.1851982,0.0363052,-0.8759601,0.1715171,-0.5731287,-1.2548739,0.4370334,-0.6180737,-0.0039931,-1.0184299,-1.3788866,-1.4776475,-1.2299980,-0.5548350,-0.4217138,-0.8795483,-0.8738012,-1.3340789,-1.0585397,-1.0753422
-0.7512933,-1.0162849,-0.0453688,-1.1986595,0.0675289,-0.6598254,-1.2652150,0.1465486,-0.9853215,-0.3701938,-1.4068049,-1.0898743,-1.1713111,-1.0733076,-1.4199831,-0.8018795,-1.2585177,-1.1403186,-1.7716546,-1.4147394,-1.2563970
-1.1233231,-1.1263301,-0.4208399,-1.4339885,-0.5573053,-0.9540609,-1.4828801,-0.3910980,-1.5405300,-1.0877459,-1.6441047,-1.2696961,-1.3009259,-1.4443502,-2.3084550,-1.8685410,-1.7866026,-1.5607827,-1.9979923,-2.0051389,-1.7628180
-1.8127195,-1.1121246,-0.7221603,-1.8147041,-0.5334873,-1.2334356,-1.9730616,-0.4180980,-2.1836138,-2.4253471,-1.7218579,-2.0097516,-1.8251820,-1.9380976,-2.5049784,-1.9801219,-1.5960441,-1.9466838,-2.2235494,-2.2105601,-1.7920654
-1.9910544,-1.5244410,-0.8527474,-2.1665099,0.1907066,-0.9958856,-2.3939335,-0.6747743,-2.4993398,-1.7309363,-1.3502260,-1.7421548,-1.9761653,-2.1707461,-2.5349622,-1.6162651,-1.7320515,-2.1566973,-2.3351643,-2.0443056,-1.5691636
-2.2600489,-1.4871737,-0.8989119,-1.7175503,-0.1774554,-1.2277490,-1.9892700,-0.7715652,-2.4103978,-0.8544533,-1.1058064,-0.9615342,-1.6731472,-1.8078624,-2.1236684,-1.2891473,-1.0983759,-1.1456345,-2.1778150,-1.7061205,-0.9038767
-1.8378285,-1.3990495,-1.0664302,-1.4528502,0.1491728,-0.9910600,-1.1596959,-0.2445443,-1.6603464,-0.7097421,-0.5094489,-0.3453695,-0.5936772,-1.0732707,-1.4689341,-0.7896075,0.0572397,-0.4110114,-1.4470890,-0.9067526,-0.2804517
-1.5786656,-1.3976040,0.0003086,-1.4258488,0.2443961,-0.6840247,-0.9008083,0.1505845,-0.6246488,-0.2814540,-0.6469209,-0.2555444,-0.0948233,-0.5177506,-0.9724146,-0.3211378,0.2370765,-0.0989857,-0.9724734,-0.5460303,-0.2097688
-0.7330831,-1.0117843,0.6452677,-1.3420953,-0.0173307,-0.6897604,-0.2507036,0.2530589,-0.5557118,-0.3471334,-0.9569155,-0.0477228,0.3745855,0.0061186,-0.8092310,-0.4722947,-0.1474662,0.3017875,-0.8965747,-0.4727928,-0.2231463
-0.4734614,-0.9401092,0.9445510,-0.7935810,-0.1599449,-0.4748510,-0.2987403,0.0585567,-0.6211400,-0.6330506,-0.8912107,-0.2210349,0.3824227,-0.0384127,-0.6391290,-0.6857014,-0.7912312,0.1185711,-0.6666295,-0.6110395,-0.5030589
-0.5909986,-0.4819861,0.4413913,-0.9186507,-0.1695246,-0.0201058,-0.3331697,0.1543446,-0.7486479,-1.0707990,-1.0972338,-0.9957457,0.2938893,-0.5398121,-0.8238032,-0.8681687,-0.9186675,-0.7851477,-0.9049356,-0.8825399,-0.7293756
-0.8452345,-0.7922977,-0.0434130,-1.3602284,-0.5494151,-0.1159129,-0.7430209,-0.1302139,-1.1899954,-0.6110716,-1.1346455,-0.8356075,-0.5366472,-0.8280894,-1.3512974,-1.3335568,-1.2919430,-1.0963198,-1.5747226,-1.4707788,-1.4356821
-1.4451454,-1.1358578,-0.6270612,-1.5766058,-1.0183353,-1.0369579,-1.0433413,-0.2655535,-1.2033769,-1.0278014,-0.9314225,-0.3936384,-0.9807901,-1.2378330,-1.5124398,-1.2118255,-0.8656008,-1.0543365,-1.6015693,-1.6990027,-1.4719875
-1.5618739,-1.1822059,-0.3828553,-1.4383028,-1.5955559,-0.8337110,-1.0571918,-0.1499751,-1.1558666,-1.1661299,-0.7378854,-0.7224045,-0.5824193,-1.2849109,-1.1643054,-0.9177668,-0.6748358,-1.0788256,-1.6121061,-1.4852953,-1.3143501
-1.2400775,-1.3786075,-0.3295273,-1.8550791,-1.2093778,-0.9567131,-1.3172033,-0.3135391,-1.1470013,-1.0568255,-0.4809432,-0.6563008,-0.4514942,-0.9117014,-1.2674716,-1.0431806,-1.2966553,-1.0456796,-1.6605445,-1.3053275,-1.3113037
-1.1234723,-1.8193389,-0.3577799,-1.7267178,-0.7011560,-1.0573006,-1.4607624,-0.3244508,-1.5399491,-0.5128664,-0.9079646,-0.4565499,-0.8638549,-1.4682622,-1.9384993,-1.2731923,-1.3533294,-1.4928725,-1.9339676,-1.7156141,-1.6080775
-1.3909967,-1.4343978,-1.1509917,-2.1831877,-0.6625135,-1.4053732,-1.7893034,-0.2155195,-1.8545283,-1.3140924,-0.7646692,-0.9753616,-1.1736932,-2.1592093,-2.3565984,-1.7089773,-1.5100411,-1.8909773,-2.3925707,-2.2229414,-1.8621011
-1.8390760,-1.5920361,-2.0542424,-2.7378194,-0.7872485,-1.5518920,-2.2126622,-0.4512711,-2.0974426,-2.0108244,-0.8939710,-1.6947221,-1.6207434,-2.4152958,-2.6374056,-2.2749548,-1.6339121,-2.0004699,-2.7836328,-2.3794568,-2.0032449
