F3,Fz,F4,Fc5,Fc1,Fc2,Fc6,T3,C3,C1,Cz,C2,C4,T4,Cp5,Cp1,Cp2,Cp6,P3,Pz,P4
0.1117548,-0.4015906,0.1029759,0.7975813,1.1419994,1.5209988,0.8015954,1.3121570,2.1196568,0.0937094,0.9126602,1.4374400,2.1612988,1.8922585,0.4287664,2.0146391,1.4085958,1.2326815,0.9433944,1.5028418,1.1414847
-0.1295298,-0.6347994,-0.2154603,0.1436395,1.2464063,1.2155529,0.7344334,1.5165656,1.7754182,-0.3165011,0.8152298,0.3369803,1.7912978,2.0756450,0.9062704,1.5263942,1.4668700,1.7660753,0.6770582,1.7715313,0.9432167
0.0388255,-0.5596063,0.4878769,0.7073720,0.5901012,1.6965595,0.5939944,1.7334533,1.8862978,-0.4832409,0.7080971,-0.3792012,1.5741689,1.4475594,0.7674573,1.6153833,1.5341662,1.2690872,0.9013124,1.6607929,0.6590714
0.6067570,-0.3811940,1.5723881,0.7984070,0.5467496,1.8160611,1.0488298,1.7156173,2.3086188,-0.2848916,0.6325335,0.3105068,1.7392439,1.7124462,-0.0019295,1.4381921,0.9083617,1.0546799,0.6269596,0.9827386,0.5600385
0.5835307,-0.7501024,1.3739158,0.6560768,0.3166937,2.1342819,1.3275727,1.5942791,1.4670514,-0.3570439,0.7150062,1.0644188,1.6437291,1.7562519,-0.0808202,1.1954525,0.7455075,1.0753356,0.2995502,0.5164623,0.8723934
0.2615744,-0.4799221,0.9814940,0.6050777,-0.5038480,2.1836984,1.2822725,1.5861143,1.0174348,-0.5349507,0.7536460,0.4321338,1.8219104,1.5576481,0.3509190,1.5915183,0.9934855,1.1594315,0.1863440,0.8076985,0.6645572
-0.1471349,-0.3050469,1.0039977,0.6505477,0.2564337,2.1074493,0.9428237,1.5724901,1.1730789,0.2690471,0.9623261,0.4957341,1.9918083,1.6767405,0.3093632,1.9064870,1.3055753,0.8841829,0.0534681,1.0549394,0.7537527
0.1619216,-1.1803809,0.9462000,0.5166730,-0.1951494,1.7444637,0.6659855,1.4051839,1.5925566,-0.0720871,1.1246535,1.6028348,1.8639022,1.5659275,-0.6101622,1.7708284,1.5814731,0.8023086,0.1738673,0.9483480,0.6228346
0.1690595,-0.9784374,0.1679430,0.3223375,-0.0374534,1.3474817,0.2278348,1.7351031,1.6258708,-0.4075332,1.0090828,1.3372450,1.6460977,1.2179446,-0.2907107,1.4145207,1.0534184,0.6143631,0.3403554,0.9623435,-0.2970493
0.1566968,-0.5804744,0.0849930,0.5386046,0.4101817,1.6830864,-0.1946338,1.8825099,1.2732993,-0.3957039,0.8416232,0.0126921,1.1231310,0.6962714,-0.2075202,1.1370350,0.2736994,0.2479480,0.2610802,0.5566567,-0.5799369
0.5667055,-0.2404385,0.2571203,0.8546558,0.7790458,1.4032991,0.1744764,1.8590343,1.3429942,-0.0134354,0.6756092,0.2147473,1.0202092,0.6115119,-0.0484490,0.6750904,0.3411910,0.3925296,0.2613259,0.2075939,-0.2212870
0.9861490,-0.4015145,0.7530159,1.7131948,0.9340829,1.4640248,0.9245490,1.8385137,1.7117674,0.6102105,0.7011272,0.5736158,1.3846191,0.9135380,0.8063486,1.2881110,0.4842175,1.2105927,0.3389182,0.2317521,0.1887026
1.2269419,-0.0344550,1.6280878,1.6330445,0.9213769,1.9703475,1.3399291,1.7638568,1.5516394,0.5156499,0.6822488,-0.0173049,2.1342263,1.6616106,0.9013714,1.7064976,0.8562928,1.5142677,0.4837225,0.4868498,0.5586679
0.9808301,-0.3322895,1.0041001,1.4443790,0.8148635,1.8282865,1.2321645,1.8611239,2.0119123,0.2857172,0.7270898,0.8107047,2.5662644,2.1264231,1.0306619,1.6350659,1.2056094,1.2523743,0.7813508,0.9447374,0.6343282
1.0732312,-0.4452115,0.6450474,1.8615601,0.2301888,1.7953029,1.7803496,1.8271916,2.2078099,-0.2139205,0.8296555,1.4885578,2.4948895,2.3213916,0.9949132,1.7253159,1.5152643,1.8528978,0.8611926,0.8197435,1.3924482
1.5924010,-0.6108583,0.7516820,2.1061141,0.3671347,1.5046670,1.6587378,2.0835228,2.4977465,-0.3147671,0.8571440,0.6795974,2.4193554,2.1032989,1.6814158,1.4790047,1.8141066,1.9348214,0.9575758,1.0807571,1.2463977
1.1319011,-0.2457203,0.0529623,2.2229002,0.6475881,1.3045881,0.9425614,1.9238857,2.7218280,-0.5519875,0.9391960,0.5981475,1.7161310,1.7829851,0.9085699,1.3404700,1.0265115,1.2908385,1.1895093,1.1135144,0.6377360
0.7202754,-1.1403724,-0.0274304,1.6764129,0.3736222,1.4891099,0.7220694,1.7219603,2.0185237,0.2324801,0.8132884,1.2663379,1.4837071,1.7289618,0.4807766,1.3216159,0.3196937,1.2661947,0.6771749,0.7679247,0.8818691
0.8626037,-0.7884170,0.0282079,2.0614660,0.8486481,1.0768704,0.4472252,1.9219763,2.1562283,-0.4208322,0.7665271,0.3452314,1.5756212,1.4564991,0.6290388,1.5869981,0.8162720,0.9432172,0.7848338,0.7080215,0.9695916
0.3892610,-0.8861763,-0.3711563,1.5128860,0.8545470,1.2595540,-0.0113559,1.9014361,2.0631938,-0.3507893,0.9394980,0.0771324,1.4843347,1.1098617,0.2241607,1.6356966,1.1502136,1.0570461,0.7880381,1.1044888,0.8042172
0.1217356,-1.2872965,-0.4832474,0.9446976,0.3446580,1.2711427,0.0216784,1.6265479,1.8039284,0.4115947,0.8624952,0.3047646,1.4147497,1.3221996,0.5009881,1.5090001,1.1206592,1.0417559,0.7973881,0.8754278,1.5439910
0.5724774,-0.8911309,-0.3557135,1.0897136,0.1791954,1.1944958,0.2201220,1.5791062,1.4246916,-0.1104839,0.9922048,0.1012412,1.5145857,1.0598359,0.7201133,2.0662956,1.2414858,1.1883078,1.1616838,0.9951066,1.9358462
0.5212872,-0.8238662,-0.0748233,1.1118048,0.8331946,1.1804881,0.1288831,1.7831855,1.6396943,-0.6520151,1.0692468,-0.3891367,1.6681957,1.0485133,0.9391788,1.9356362,1.1628184,1.1885648,1.3912919,1.5535805,1.9472663
0.1553310,-1.1345520,-0.0475205,0.9689590,0.6558234,0.9758343,0.0819500,1.5981290,1.6501945,-0.5887340,0.9449605,0.2804311,1.3644438,1.1557654,0.5870758,1.6936944,1.5911047,1.2150898,1.0887986,1.6105999,1.4827156
0.1744252,-0.9755220,0.0432851,0.9707350,0.3147773,0.9548429,0.4935342,1.4650568,0.8291377,-1.0374029,0.9323812,0.6143412,1.1871510,1.1064750,0.1924485,1.5086491,0.8338432,0.9063596,0.8798916,1.3990464,1.0303448
0.2296189,-0.4867154,-0.2452132,1.4170436,0.6762571,0.5111368,0.1744286,1.3766487,0.7984247,-1.0253410,0.9715228,-0.2664346,0.7177618,1.1006312,-0.2682931,1.0284355,0.2938266,0.4405700,0.6620376,0.8251172,0.6804807
0.0792094,-0.7347665,-0.7103310,0.6152833,-0.2031148,0.6766984,-0.4011719,1.2914367,0.9036642,-0.2345578,0.7813368,-0.2493450,0.9879128,0.7601488,-0.9868081,0.8874483,0.2227489,0.1954505,0.0973177,0.4683225,0.3716047
-0.4680677,-1.3885098,-1.5248617,-0.3124301,-0.7039767,0.8058071,-0.7938052,1.2628816,0.7741271,-0.2305668,0.9370776,0.9799513,0.9700668,0.5068725,-0.4610263,1.4639742,0.5598016,0.2094901,0.2427482,0.2223669,0.2267456
-0.2985187,-1.3523294,-0.6823725,0.5275585,-0.3847014,0.7152146,-0.2838909,1.5384538,0.8052979,-0.1633245,1.0750368,1.0288954,1.2911165,0.5187516,-0.3647017,1.1645261,0.9801561,0.3595065,0.0307715,0.1278613,0.2667421
0.4048637,-1.0779871,-1.3028880,0.7676179,-0.1929325,0.1991766,-0.4938231,1.3879532,0.8747581,-0.4662691,1.0314060,0.2926885,1.2272416,0.5229731,0.2208023,1.8837092,1.5929159,0.7496344,0.1533046,0.5375339,0.4726727
0.8371059,-0.9414988,-1.0008535,1.0899869,0.1226153,0.2787450,-0.0475989,1.3672923,1.6541411,-0.2234226,0.9048603,0.9767604,1.2209775,0.7163575,0.6181629,1.8529853,0.6826548,0.3981843,0.6714671,0.8618354,0.4099139
1.3128605,-0.8675129,0.1260686,1.1781602,0.2314022,0.6296499,-0.1170330,1.5912114,1.6834532,-0.1283318,0.8531078,0.4365509,0.9979870,0.9246674,0.3404694,1.4346945,0.2228679,0.5275220,0.6861724,0.3097021,0.5470188
1.0228983,-0.6619641,0.6294062,1.2983097,0.3914603,0.4805033,0.1943541,1.7104164,0.9496783,-0.5150557,0.8693514,-0.3442360,0.8055732,1.0326711,0.0670690,1.4412796,0.3758157,0.4988774,0.7932175,-0.1067861,0.2472861
0.5874824,-0.5256730,0.3346043,0.8045192,-0.0293582,0.8851876,0.4976876,1.4904536,1.2366203,-0.5470833,0.8135753,0.2214967,1.0190488,0.9387943,0.0281005,1.5873338,0.1051419,0.3683761,0.4616628,0.1214278,0.3789791
-0.1338798,-0.6622213,-0.3182159,-0.3542663,-0.4135055,0.7879907,-0.3096062,1.3446038,1.0401484,-0.0623590,0.8865515,0.3563499,0.9432636,1.1033329,0.0965087,0.9828159,0.8388634,0.2779754,0.2067491,0.1975417,0.2350476
-0.2681851,-0.8580076,-0.3615775,-0.3443228,-0.3077083,0.7442166,-0.0292376,1.3779789,0.3182889,-0.2372218,0.9403127,-0.4222873,0.9659775,0.8723331,-0.4713597,0.9011165,0.9797791,0.2339151,0.2689084,0.4327827,0.0222788
-0.4539556,-1.0311376,-0.4447118,-0.2923852,0.2314129,1.0750034,0.0837950,1.2684481,0.4553684,-0.7791432,1.1372932,0.0397772,1.2222338,0.4838997,-0.7962127,0.9189122,1.2165807,0.0627069,0.0833766,0.6470175,-0.1240567
-0.5489748,-1.2350955,0.3268536,-0.0918724,0.2250425,1.2824210,0.0978643,1.3072631,0.6310463,-0.5916085,1.0538322,1.0421188,1.2949047,0.5073798,-0.3232318,1.1386920,0.9574738,0.0050959,0.3556422,0.3937122,0.0894392
-0.3599208,-0.8529487,0.1315052,0.3428283,0.8906487,0.7761671,-0.1446985,1.4361945,0.8422091,-0.9718236,1.1366912,0.1888211,1.1401706,0.5545554,-0.6515530,0.8007448,0.7648137,-0.0608207,0.3016985,0.4507357,-0.0030769
0.2634759,-0.9997816,-0.4944794,0.4891700,0.3520909,1.3982468,-0.3562662,1.4073192,0.7126268,-0.5459921,1.1410469,-0.2020643,1.4976687,0.7063646,-0.1339429,0.7659371,0.7611944,0.1598603,0.4646271,0.3338277,0.1369932
0.3855439,-1.1707946,0.0442301,0.2212723,-0.0001378,0.8971074,0.0568854,1.2666761,0.8373189,-0.7446741,0.8931628,0.1380286,1.1617606,0.9335375,-0.3423908,0.7212645,0.6414238,0.4295486,0.0580370,0.3560694,0.5541414
0.4058822,-1.3626959,0.0458266,-0.1384310,-0.1276519,1.0243033,0.3261987,1.4724000,0.2693256,-0.7095675,0.6768932,-0.6100553,1.1783929,1.0848576,-1.1281354,0.3698937,0.3992983,0.6598355,-0.0691899,0.1530124,0.6499351
0.4774965,-1.1017339,0.0048452,-0.1615760,-0.4885104,0.9907724,0.5522724,1.5260712,0.6898783,-0.7458099,0.7897087,-0.7496858,1.3525140,0.9339561,-0.8626052,1.0388765,0.6281527,1.0185488,0.1194380,0.2926830,0.9273748
-0.0707276,-1.0517752,0.3221420,0.3204048,-0.0112329,0.7125491,0.5733718,1.5165840,1.2596239,-0.5482991,0.9385970,0.1696016,1.7466841,1.1377095,-0.0295780,1.3462932,0.8669204,1.1829596,0.1317212,0.7431172,0.8268023
-0.3393518,-0.6821116,1.0418833,0.0754801,-1.1116321,1.3478348,0.9786430,1.5557792,1.0253609,-0.9012825,0.8425390,0.4653183,1.8097830,1.3505188,-0.3869495,1.1378736,0.7243013,1.1592458,0.2166688,0.4862733,1.1199691
0.1172278,-0.2394225,1.1356426,0.4419675,-0.6769972,1.5241721,0.6757343,1.4842577,0.4477889,-1.6610423,0.8066682,-0.1831525,1.7399656,1.2541739,-0.0287253,1.3110985,0.6563333,0.7845048,0.2713341,0.9091603,1.3159072
0.2361795,-0.2963823,0.3359451,0.3120299,-0.7260987,1.1009246,0.3459249,1.4466976,0.4928014,-0.8761961,1.1137073,-0.1240883,1.6212149,0.9227201,-0.5493898,0.9002366,0.9840240,0.3502011,-0.1080520,0.8540154,1.2152089
0.1299624,-1.0817069,0.3717158,0.6280671,0.0251802,0.7859521,0.6689020,1.2322593,0.6602119,-0.7241354,0.9533510,0.9636407,1.7243167,0.9908046,0.0910706,1.1035424,0.7123742,0.5632693,0.0785159,0.7769575,1.1935101
0.6573877,-0.5442864,-0.2017066,0.9117550,0.1391116,1.2757893,0.6462929,1.7025924,1.6222918,-0.6518797,0.8506968,0.3579464,1.4033154,1.0979912,0.4529615,1.4873273,0.7449047,0.9909804,0.2780294,0.8208846,1.0914192
1.2189938,0.3217898,0.3774238,0.7010854,0.2707763,1.4733256,0.4592926,1.9920328,2.3130882,0.2216068,0.7960801,0.1069172,1.5097018,1.0582412,0.4301094,1.2850777,0.6981037,0.5850214,0.5420752,0.8477097,0.7781221
0.7709634,-0.0148278,-0.4121274,-0.2285185,0.1544356,1.1787641,-0.0460811,1.9153504,1.5155342,0.3149487,0.7321247,0.7133011,1.0022327,0.7118087,-0.0994124,1.4331751,0.2986463,0.3964874,0.0405231,0.2294033,0.4840201
0.7102945,-0.2771888,-0.8038723,0.3553005,0.7570855,0.7818134,-0.0876270,1.7356538,1.2544160,-0.3078196,0.7495971,0.3266128,0.9012442,0.5140907,0.8292590,1.6572760,0.3676457,0.4072452,0.6492314,0.4724756,0.8831156
1.1280090,-0.2123006,-0.4416097,1.1769178,0.8852485,0.9870427,0.1403094,1.6362611,1.2031589,-0.5856165,0.9376528,-0.7367243,1.0686455,0.7241492,1.0211129,1.8047283,0.8532100,0.6355942,0.8511937,0.5061983,1.1835463
0.7542280,-0.1428233,0.5053792,0.9082181,0.0709692,1.2817807,0.0020784,1.5827305,1.5358605,-0.1174359,0.9810486,0.1580714,1.0517676,0.8899170,0.6119703,1.4690313,0.9549317,0.5193659,0.5316169,0.7901554,0.7720676
0.8011318,-0.1882599,0.4381427,0.9341748,0.0198198,0.9347858,0.2114739,1.6791296,1.4728302,-0.3097588,0.9453028,0.4401393,0.6901835,0.8309524,0.7094168,0.6190826,0.9589048,0.4004783,0.4579936,0.5667578,0.7713744
1.0762250,-0.5861914,0.0074127,0.9214340,0.4936306,0.6867176,0.3352292,1.8160558,1.3970380,-0.2678559,0.8186243,-0.3379363,0.5498689,0.6638786,0.5940357,1.2137450,0.8757420,0.6418810,0.6618570,0.2265025,0.6725827
0.9202529,-0.4685188,-0.6066794,1.2133609,0.7483847,0.5252351,0.3562999,1.8444880,1.4207759,0.1436315,0.7633940,-0.1402529,0.5217395,0.5693324,0.9512730,1.1943988,0.3894345,0.3499605,0.3491341,0.0761172,0.5163158
0.4397312,-0.7133802,-0.2354614,0.8092852,-0.1863684,0.4946654,0.2081200,1.6610578,1.4177815,-0.6366434,0.6585862,0.1793651,0.7673398,0.4340667,0.6063688,0.8137338,-0.0694418,0.3403558,0.3220421,0.1902413,0.4428172
0.8499720,-0.3909148,0.3107776,1.4310825,0.2765179,0.4694983,0.1592637,1.9045258,1.3573408,-0.7727086,0.7484450,-0.8788281,0.5170434,0.6839888,0.6965316,1.4988393,0.0512117,0.5983607,0.5148500,0.4679049,0.3688225
1.2169472,-0.0615323,0.4085134,1.7885340,0.4779995,0.7499082,0.3281554,2.4591775,2.1711152,-0.0743307,0.8077146,-1.0449198,0.7739583,0.6465445,1.7715824,2.1133239,0.7537388,0.5415947,0.9931324,0.6005655,0.6359967
0.8308020,-0.2602183,0.4455762,0.6933407,-0.5949707,0.9580820,0.7093115,2.3108432,2.1281791,0.0656946,0.7706106,-0.0854168,0.6708932,0.6316140,1.2999529,1.8546920,0.4019903,0.2106122,1.0473161,0.9047143,0.7153977
0.5693181,0.2681295,0.2648406,0.5327913,-0.5233371,0.5115264,0.0367843,1.7673078,1.2614940,-1.3921783,0.6672649,-0.6121912,-0.0544282,0.6712598,0.3205312,1.0560662,-0.0591146,-0.0943808,0.2802224,0.6229988,0.4028770
0.4764560,0.1484596,0.3873178,0.3453199,-0.1873346,0.1884880,-0.3133507,1.5897788,0.9925884,-1.6091778,0.7122275,-1.1621003,-0.0837251,0.2102035,0.0031960,0.2648541,-0.0433767,-0.5761619,-0.2374056,0.1308852,-0.2633968
0.7949623,-0.3959803,0.6245521,0.6243522,-0.1083756,0.4657370,-0.2100396,1.2722197,0.4675281,-2.1461933,0.7031850,-0.8338239,-0.1190055,0.1216312,-0.2623287,-0.0117126,-0.2957747,-0.7326273,-0.3208429,-0.4243662,-0.4426564
0.6024424,-0.5985426,0.5556583,0.2591812,0.4042700,0.6988360,-0.4670947,1.3053569,0.2250069,-2.0523734,0.4754185,-0.9141965,0.0491114,0.0382015,-0.7164379,0.0021826,-0.3347060,-0.6737981,-0.2565226,-0.7571834,-0.6061765
0.2142546,-0.0044578,0.9659243,-0.0815511,0.3198119,0.4212848,-0.2863243,1.6447616,0.5012580,-2.2748652,0.5157613,-1.6732637,0.1494162,-0.0716702,-0.7669806,-0.2669603,-0.5012136,-0.4020696,-0.4837968,-1.0657327,-0.8956971
-0.2433728,-0.3658794,0.6143826,-0.6928703,0.3584684,0.2458704,-0.6369658,1.3939264,0.1042488,-2.6002057,0.4716812,-1.1557211,-0.2354533,-0.1079081,-1.3178210,-0.5251455,-0.4408573,-0.2434294,-0.7971024,-1.6603354,-0.8956878
-0.4808659,-1.0470159,0.3763470,-0.4612337,-0.5258468,0.4826577,-0.4389421,0.9854406,-0.1612096,-3.1178212,0.4059455,-0.6436921,-0.4138146,-0.1684908,-0.8969668,-0.4864776,-0.3170353,-0.3047182,-0.5741526,-1.3792177,-0.5937622
-0.5441813,-0.7897919,0.1789877,-0.3548394,-0.5866044,0.7819911,-0.3474087,1.0439448,0.1088421,-3.0350780,0.5840604,-0.8855144,0.0793880,-0.3068472,-1.1855071,-0.1270124,-0.0841655,-0.5102993,-0.6984122,-0.9129910,-0.4794104
-0.8114187,-1.2829345,0.5700591,-1.3251348,-0.1527415,0.6326758,-0.7404582,1.0416466,-0.3997160,-2.0651639,0.7162628,-0.8594432,0.1041929,-0.5462981,-1.0964276,0.3343296,0.2617130,-0.4728859,-0.2901133,-0.5252947,-0.3036885
-0.8064122,-1.4510804,1.0200945,-0.8573721,-0.1733665,0.8614140,-0.5553678,0.9650110,-0.1800988,-1.7465690,0.7508379,-0.0255002,0.6963744,0.1353062,-1.0567852,0.5949975,0.5708306,-0.4743436,-0.0568270,-0.0794970,-0.0321357
-0.4516182,-1.0706137,0.2619327,-0.5140337,-0.4687606,1.1338032,-0.3022948,1.1287369,0.1254970,-1.5106319,0.9463495,-0.0636496,0.7116509,0.5258934,-0.5583701,0.7742574,0.7046066,-0.2687622,-0.0319874,-0.2099797,0.1242301
-0.1878260,-1.1177282,0.1211633,-0.4761683,-0.2449472,0.6791134,-0.0261733,1.4006515,0.6479081,-1.2917751,0.9012117,-0.8975827,0.4861596,0.2828307,0.0205655,0.8186967,0.4414391,0.2487532,0.3270366,-0.3331111,0.1450880
0.1954299,-1.2304206,1.2665884,-0.0008264,0.6373612,0.9103971,0.1818590,1.3937268,0.2799052,-0.8556753,0.9260765,-0.3069370,0.8702793,0.5629722,0.2082285,0.6142436,0.9520800,0.5873604,0.3020598,0.0112351,0.6420918
0.6193953,-1.2505101,1.1759833,0.6651984,0.3534167,0.9290867,0.1123238,1.3217982,0.5908664,-0.0122810,1.0292808,0.1973614,0.5640212,0.7685257,1.0647765,1.1947449,0.9678822,0.7689856,0.7751918,0.5769746,0.7470831
1.1300963,-0.5918698,0.9257917,0.6533918,0.1300140,0.6468752,-0.1123133,1.6036673,0.8240486,-0.3661201,1.0007578,-0.3177634,0.3013122,0.4029857,1.7587699,1.1538138,0.5526268,0.4712329,1.4568580,0.4224847,0.2442098
0.9502293,0.4303479,0.5694848,0.2616632,0.1898783,1.1765895,-0.4436184,1.5774466,1.0584112,0.1987381,0.9921317,-0.5001770,0.3813923,0.2260442,1.2032093,1.6209041,1.1583909,0.0174946,0.8687147,0.4019884,0.4627443
0.7596825,-0.4857849,0.5188318,0.3605451,-0.2075037,0.7708310,-0.2697855,1.5926895,0.7681786,-0.2484156,1.0943280,0.2011215,0.6242647,0.2150706,1.0509068,1.3000764,1.1973311,-0.1705068,0.5665123,0.2377721,-0.1661536
0.4079548,-1.4512379,0.1841407,-0.1889120,-0.3535785,0.4029385,-0.6904791,1.5268003,0.1504104,-0.5280029,1.1433414,-0.5408781,0.2650600,-0.0050233,0.0431055,0.7401548,1.0039747,-0.4078546,0.4006150,-0.1409038,-0.5921333
0.2790338,-0.8904433,-0.1037489,-0.3856832,-0.1688207,0.2832198,-0.7761539,1.2799014,0.4391072,-1.5021379,0.9852159,-1.1915550,0.1908177,0.0861627,-0.1179433,0.6432877,0.5958657,-0.3096295,0.1743055,-0.5751495,-0.8784393
-0.4045741,-1.6613383,-0.7089400,-1.3853111,-0.8502971,0.2842592,-1.4441013,1.0059882,0.2949599,-1.5276220,1.1923770,-0.2543364,-0.1252497,-0.3722188,-0.3777275,0.3473896,1.0218797,-0.5450976,0.0297113,-0.2207224,-0.3017328
-0.7856608,-2.5310471,-0.6459885,-1.1342218,-1.1141174,0.4913922,-0.2361630,0.9283560,-0.1160442,-1.3261952,1.1973641,0.0774751,0.1206072,-0.3816984,-0.1151630,0.5012487,0.9724962,0.2741908,0.1969353,0.4466853,-0.0172890
0.0199616,-1.2082720,1.9943668,-0.2823335,-0.2732062,1.2331207,1.1613469,1.2571002,-0.0903389,-1.0509568,1.1427194,-0.3540952,0.7821739,0.6913535,-0.1772360,1.0860432,0.8482463,0.4298228,-0.1047033,0.7152948,0.1012955
0.7922701,-0.3965419,2.2271895,-0.4974207,-0.2591266,1.3791636,0.7579950,1.0918580,0.4241042,-0.6493670,0.9564425,-0.3011635,0.8919708,0.8027632,-0.1939859,0.7735969,0.9851958,0.6935146,-0.1392931,0.6055731,0.1370154
0.3270508,-0.8932128,2.4432766,-1.0555344,-1.3818848,0.8779430,1.1858683,0.9188998,0.3728625,-0.8639538,1.0822122,0.2383721,0.7682143,0.9502521,-0.4930283,0.8527985,1.4493448,0.7893342,-0.2037842,0.4148585,0.2777289
-0.0642566,-1.4414681,2.1120214,-1.2816110,-0.9204934,1.0158651,1.3432361,1.0602677,-0.0427710,-0.5197244,1.1579053,0.0128672,1.1029350,1.4437510,-0.4040212,1.1636823,1.6303889,1.0060023,-0.0579498,0.8173139,0.4418660
-0.0287506,-0.7143617,2.7630124,-1.3679953,-0.5399178,1.7015926,1.6810874,0.8120561,-0.2513990,-0.0891674,1.1166418,0.4267425,1.6421900,1.8216987,-0.5961646,1.0013715,1.5399289,0.9379317,-0.0614937,0.9431643,0.3234230
-0.6110038,-0.7136069,2.0627036,-1.8986742,-1.2494951,1.4838612,1.1698371,0.6176447,-0.4290060,-0.1710390,1.1189055,0.8681236,1.5515219,1.7387075,-1.0103347,0.1679050,1.0294957,0.6737550,-0.2187617,0.1681299,0.0422899
-0.7504294,-1.1238655,1.2601290,-1.1126846,-0.7229096,1.1783550,0.9015758,0.7767337,-0.6872477,-0.5877800,0.9692653,-0.1304259,1.1757009,0.9861557,-1.1182309,0.6777641,0.8576860,0.6161562,-0.3980557,0.0929627,0.0325836
-1.2042100,-1.0227984,1.2226363,-1.2797114,-0.3910740,1.4376777,1.1621478,1.0008923,0.2394267,-1.0338702,0.9096866,-0.4004015,0.8859249,0.6521148,-0.7074884,1.1513913,1.3854076,0.7932777,-0.1165863,0.5385993,0.3560279
-1.0378069,-0.4525189,1.8694777,-1.9331356,-0.2678206,0.9784758,1.3275651,0.9091858,0.4590790,-0.4726273,1.0410119,0.5508538,1.4952701,1.0761193,-0.4094836,1.1313859,1.5857737,1.1508197,0.1835694,0.8447701,0.6998474
-0.9002323,-0.8009066,1.6045642,-1.4883475,0.3048396,1.3734107,1.3927222,0.8253873,-0.0864087,-0.6147206,0.9534080,0.4888516,1.8870391,1.4692037,-0.3222067,0.8448378,1.5081749,1.3720783,-0.1993318,0.6684784,0.7790058
-0.7125684,-0.4689565,1.3221457,-1.8215768,0.2811977,1.4617792,1.3585817,1.0752152,0.1500172,-0.8173690,0.9186426,-0.3182865,1.8329490,1.4293190,-0.1173297,0.8643674,1.4345795,1.2838924,0.3695215,0.3508097,0.7196236
-0.7986951,-0.6624876,1.8259619,-1.0273223,-0.0659900,1.4561721,1.2350494,0.9797595,0.6415104,-0.9782810,0.9457992,0.1775391,1.7512379,1.2277421,-0.4453955,0.5092375,0.9298666,0.7734318,-0.2234640,0.2020159,0.3877072
-0.7928601,-0.9519221,2.1148288,-1.2225626,-0.6091888,1.4343671,1.2205679,0.8620374,-0.0074113,-1.2135769,0.8921037,0.2621350,1.2644924,1.3886056,-0.5017385,0.7495932,0.5160372,0.6579325,-0.6089104,-0.0358000,-0.1513142
-0.0912718,-0.3612495,1.9415593,-1.3133156,-0.7330782,1.2254459,0.9900228,0.9898169,-0.2334499,-1.2797110,0.8435410,-0.6418298,0.6416688,0.9738729,-0.5965137,0.6039295,0.2396255,0.5501036,-0.7658278,-0.7262304,-0.1364445
-0.2656600,-0.1397980,1.9585694,-0.5593941,-0.1134894,1.6305888,1.2591000,1.2422550,0.5749090,-1.0470541,0.8366880,-0.6715634,0.6873441,1.2092838,0.4351951,1.0840310,0.5970909,0.5085789,-0.6164374,-0.2795561,0.1868480
-0.4163144,-0.4366495,1.9803081,-0.5303881,-0.1472962,1.7815901,1.3460442,1.3721868,0.5509120,-0.5508296,0.9597573,0.0784694,1.3027638,1.7111913,0.7000437,1.3200682,1.1332284,0.9893298,-0.2839810,0.8808433,0.7767896
-0.3840986,-0.0671019,1.7129951,-0.4131855,0.4890744,1.6705554,1.4136529,1.4356552,0.6941676,-0.5227955,1.0289690,-0.1303540,1.6764362,1.6042416,1.3221772,1.6755259,1.2127261,1.0852659,0.3200576,0.9716113,0.6987477
-0.1723081,-0.0287714,1.9350079,-0.3481701,0.3914646,1.7826585,1.7244482,1.4482356,1.1617707,0.2610599,1.1710769,-0.6326045,1.4704294,1.8872595,1.2363901,1.6548291,1.0971640,0.8809513,0.6880937,1.1238817,0.9621846
-0.3781774,-0.6431001,1.7107244,-0.7826608,0.3967394,1.5382887,1.6681623,1.2982134,0.7521124,0.1918553,0.9669323,-0.3668075,1.6723821,1.8828474,0.3779715,1.4652160,0.7529484,0.3569679,0.3330886,1.0309615,0.9961482
-0.8423979,-1.4624014,1.3365617,-1.4073336,-0.2756089,0.9632150,1.3446351,1.2589833,0.4185256,0.3265277,1.0706574,0.0595007,1.6945337,1.5756052,-0.3167128,1.1209171,0.9577211,0.2194801,0.1583359,0.8385248,0.4086643
-0.4718222,-1.1257321,0.6072362,-1.2253439,-0.1005603,0.9961077,0.9239504,1.0828382,0.1174723,-0.1191295,1.1587405,-0.3218184,1.4612719,0.9959998,-0.6080818,1.0469755,1.0967170,-0.1346614,-0.1309472,0.6101236,0.1587237
-0.7117692,-1.1133833,-0.2984183,-1.2141407,-0.5307739,0.9798997,0.6160464,1.0007718,0.4721384,-0.3965029,1.0837332,0.4881648,1.2793717,0.9217815,-0.5732496,0.5823631,0.4469264,-0.4265023,-0.4035176,0.4638627,0.1626099
-1.1811206,-1.6927773,0.3412755,-1.8008780,-0.7200900,0.6785287,1.0953929,0.9531009,0.6001920,-1.0462750,0.9874853,0.8137064,1.1716729,0.8960872,-0.3306653,0.1681991,0.4391522,-0.2219515,-0.5511421,0.0691208,0.0836721
-1.4494816,-1.2615362,0.3168404,-1.6257813,-0.4906305,0.5899330,0.9420777,0.7437735,-0.1877670,-1.4232266,0.9280027,-0.0689635,1.0241196,1.0774782,-0.2345545,0.7690551,0.9562061,0.3908975,-0.0706785,0.3246457,0.3050536
-0.9167671,-1.1758453,0.7438105,-1.4700772,-0.2615527,0.6784431,1.0111291,0.7630548,-0.4290237,-1.0740451,1.0408994,-0.1531460,1.1765646,1.1238538,-0.2745978,0.6393475,0.9910458,0.2050572,-0.2187147,0.6040155,1.0077392
-0.9120232,-1.4897528,0.1350345,-0.8289839,-0.9783904,0.4912869,1.2282434,0.7681696,-0.3315614,-0.7898766,0.9287280,0.4926673,1.4692349,1.2779125,-0.5913858,0.3887400,1.1326405,0.3599772,-0.4236039,0.1331563,0.5199968
-0.2479406,-1.4373267,0.2078555,-0.2575847,-0.8742146,0.7153918,0.9360244,0.9396645,-0.2592736,-1.0559572,1.0641744,0.0125632,1.1393423,1.1948882,-0.5249180,0.3700155,0.5788192,0.1360118,-0.4269375,-0.2634810,0.0431341
-0.3318827,-0.6041480,0.6467949,-0.5629119,0.2811872,0.8254682,1.0898468,1.0220942,-0.0831715,-0.3040622,1.1892363,-0.8225285,0.9532269,1.2292783,-0.6613111,-0.0116671,0.3218302,0.0307492,-0.7575585,-0.5968829,0.0617976
-0.1250237,-0.4015881,1.2462403,-0.7889131,-0.0968863,0.8619283,1.1305232,1.0231192,-0.3325166,-1.0327623,0.8648525,-0.0230349,1.1307840,1.3787426,-0.9252483,0.0495948,0.4620942,0.3412487,-0.8275629,-0.4983656,0.2109056
0.0247428,-0.1821349,2.0531039,-0.1079844,-0.3546515,0.9200658,1.5952585,1.1287112,0.0660542,-1.2947313,0.7624775,-0.0750947,1.6191344,1.3743304,-0.5860890,0.2675546,0.4782868,0.3730438,-0.7192138,-0.4737164,-0.0234407
0.0171151,-0.4563126,1.5361044,0.0564471,0.1112832,1.0964299,1.8065355,1.5490124,0.5308377,-1.7353574,0.9113803,-0.8355170,1.0796789,1.6911211,-0.6895549,0.2505641,0.7755974,0.4315784,-0.9097868,-0.5985932,0.1415406
0.1534640,-0.5752204,1.5866646,-0.4714276,-0.4209839,1.4481741,1.7554654,1.5019138,0.6284440,-2.0670214,1.0032427,-0.0124946,1.4389861,1.5896705,-1.0377589,0.2650302,0.7377714,0.6192184,-0.4468018,-0.7208648,0.4981705
0.2649777,-0.4251936,2.0017233,-0.4288037,-0.5078228,1.5740899,1.6021291,1.2396092,-0.0632024,-1.0871761,0.8526402,0.2400453,1.9848965,1.8018589,-0.3805194,0.1275657,1.0427805,0.7367246,-0.4752254,-0.3264294,0.5292565
0.6715009,0.1840118,2.2720182,-0.3186327,-0.1096767,1.5036200,1.7853608,0.9256643,0.4496514,-1.2187029,0.8502418,-0.6204780,1.9758774,2.2310746,0.0369637,0.8106609,1.4451684,1.0129032,-0.0595066,-0.1202650,0.5942856
0.8057340,0.6426287,2.9204562,-0.7787582,0.4121544,1.1144727,2.1816459,1.1303712,0.6567836,-1.1806611,1.1096200,-0.6244282,2.1685948,2.3906527,-0.2414630,1.1971674,1.4015187,1.2798049,-0.1789890,0.4892641,0.5176900
-0.4688077,-0.1456252,2.2950833,-1.8924063,-0.0019338,0.6595793,1.6333402,0.7806016,0.0753065,-0.3742235,1.1596291,-0.1089278,2.0803185,1.9580352,-0.6939125,0.6526194,1.5677925,0.8253565,-0.2357903,0.8343412,0.6365777
-0.7245249,0.1180070,1.9290503,-1.2836972,-0.5400732,1.1917255,1.7756845,0.6359813,-0.6370490,-1.2440140,1.1729053,-0.1727394,1.5728760,1.6593450,-0.3025109,0.8879550,1.5578284,1.2742193,-0.2428211,0.5395877,0.9189698
-0.7955140,-0.0859673,1.5029520,-0.8440301,0.3722843,1.3377954,1.9117062,0.8182523,-0.1970240,-1.0260336,1.2112327,-0.5274876,2.1731691,2.1939123,0.4414328,1.5459663,1.9947081,1.6115751,0.2440697,1.0601168,1.6637800
-0.5343409,-0.5814714,1.9052876,-0.8841391,-0.1080028,1.0062037,1.9888468,0.9415674,0.3815289,-0.2640674,1.1206902,0.8407852,2.2136393,2.6186712,0.6367201,1.7234749,2.0586934,1.8561459,0.3546906,1.2820529,1.5698003
-0.4400751,-0.5355072,1.4169034,-0.7856900,0.5810127,1.0744473,2.2184551,1.0307347,0.0633734,-0.8274357,1.1120775,1.5204109,2.0960617,2.3911111,0.8681957,1.7014247,2.2153947,1.8372554,0.6911077,1.3039483,1.5281770
-0.7746948,-0.2374366,1.9943156,-0.9368138,0.3270530,1.0559242,2.5318534,1.2364440,-0.0508648,-0.3560153,1.1105630,0.6880195,2.1513720,2.5930340,0.8771341,2.0183377,2.5638022,1.7331376,0.7087508,1.4374698,1.2587755
0.1736801,-0.0018071,2.1439011,-0.2351963,0.5609250,1.3021792,2.6184206,1.4067196,0.5242866,-0.1637795,1.1502982,0.9946936,2.2957039,2.5599449,0.6273369,1.5601623,2.1484663,1.6273228,0.4300261,1.4072758,1.1180109
0.1682250,-0.3937009,2.6342151,0.1094337,0.0065732,1.5300021,2.4914274,1.5680099,0.4826469,-0.0131398,1.0229571,1.1747997,2.3429639,2.7454000,0.9916333,1.6528544,2.1892710,1.5878069,0.3663319,1.1685077,1.2753679
0.0539584,0.0368099,3.1031535,0.1451124,0.4697866,1.4434611,2.3578010,1.6523670,0.4588226,-0.5105553,1.1858314,0.5936818,2.2734699,2.4387789,1.4336108,1.8347799,2.6063056,1.6188357,0.6331512,1.1617855,1.3996661
-0.0380744,-0.2446433,2.7677915,0.3374120,0.3895676,1.6087812,2.3181314,1.5838825,1.3350576,-0.3417120,1.2210331,0.4753985,2.2269940,2.3532739,1.2667513,2.0653622,2.3501120,1.6021694,0.7689337,1.2607430,1.6597582
0.5489535,0.0991809,2.6380134,0.1790850,0.3864872,1.4260790,2.2694142,1.3992479,1.0942791,-0.5154523,1.1148510,1.0680006,2.4137127,2.6042464,1.6590724,1.6111959,1.9278278,1.7067415,0.6480669,1.1312042,1.7746004
1.0523893,0.2366406,2.1079538,0.2337910,-0.1115922,1.0831068,2.2783232,1.6688160,1.2776718,-0.7068634,1.0063822,0.4693828,2.3388774,2.4728730,2.0100224,1.7178289,2.0630751,1.9655647,1.1317912,1.6906587,2.2077978
1.0648015,0.9747234,2.5919759,0.5132703,0.4285014,1.0346110,2.7383971,1.8157355,1.7300379,-0.3784119,1.0605062,0.0566648,2.2810771,2.4169486,2.2400339,1.9300960,2.1638160,2.1255412,1.5225555,2.3606660,2.4952972
0.4313233,0.3757712,3.2348685,0.3079321,0.9331492,0.9518631,3.0150909,1.8421816,1.5022042,0.5177241,1.1397467,0.8313550,2.3977642,2.6550109,1.7597713,2.2360506,2.3218689,2.1990464,1.5260352,2.2473071,2.6545165
0.5931971,0.4480804,3.1859946,0.8917446,1.0669622,0.8667079,2.8059971,1.9826516,1.3630307,-0.3642556,1.1626600,0.9883032,2.5716138,2.9945900,1.2556959,2.1274610,2.5037518,2.4657052,1.3192476,1.9889631,2.7727313
0.6368148,0.4203696,3.2834771,-0.1675333,0.7107421,1.3539400,3.0427628,1.9775028,0.6599451,-0.9067975,1.1338953,0.5705996,2.6333570,2.9712689,0.8104134,2.1735620,2.8983674,2.9324129,1.2984458,2.2533622,3.0141702
-0.2394574,-0.2603719,2.8677063,-1.1579925,0.5725110,1.2732817,2.7187333,1.3986223,0.3864153,-0.6970744,1.1873201,1.2135313,2.8886738,3.3868952,0.7511324,2.6910977,3.2906051,3.1026113,1.4430437,3.1472852,3.6456172
0.8168610,0.1112327,3.4059601,1.2901044,0.7498059,1.5633413,2.8462749,1.4717047,1.2979587,-0.1051266,1.0977339,1.9357500,3.1619971,3.3514130,2.3347504,2.5767002,2.7082729,2.7576694,1.4234061,2.7249920,3.0287673
2.3812079,1.9483836,4.2768898,2.0728974,1.0799731,1.4470000,3.1340649,2.0255713,2.3291800,0.0275859,0.9287086,0.5243093,2.7270079,3.0971751,2.8111494,2.0297837,2.4470279,2.4349010,1.4015230,2.2270854,2.5045030
1.8988601,1.7292587,3.4539206,1.7085370,1.7138479,1.3280392,2.3633087,1.9061584,1.7648592,-0.6993571,0.9635072,-0.2502710,2.0138812,3.0450621,2.0086992,1.5143056,1.8291534,1.9268241,1.1012902,1.6178563,2.1456869
2.3021145,1.4198220,2.8631086,2.6059830,2.0011930,1.1764860,2.0981340,1.8061802,1.6607070,0.3627563,0.8855308,0.3135578,1.4708686,2.5456860,1.9349041,0.8815411,1.1240923,1.5459119,0.6870852,0.6594726,1.7162521
2.7741244,1.6324506,1.6415844,3.0994835,1.7360971,0.8357074,1.6074229,2.0988512,1.7672671,-0.1694039,0.9130106,-0.3423752,0.9486008,2.2211163,2.1729538,1.1979911,1.1346854,1.4422503,0.6328351,0.8246244,1.5887346
2.4966016,1.0338331,1.7849158,2.8241172,1.0533061,0.8555082,1.2556614,2.2181654,2.0796123,-0.2418601,1.0396409,-0.4011017,1.8090746,2.2110929,1.7293427,1.5062226,1.5623173,1.5093544,0.7069624,1.3611728,1.7333429
1.9067327,0.6960641,2.5856340,1.9955249,1.2012516,0.6203136,1.5336690,2.1775856,2.3278086,0.6961622,1.0012747,0.7753356,1.8346626,2.0966997,2.3548048,1.7117699,1.4089307,1.4448198,1.0241972,0.7723808,1.6957058
1.7076404,0.9738506,2.6307559,1.6554508,0.9643243,0.6062639,1.8595982,2.3169067,2.4787626,1.0644289,1.0758095,1.1730031,1.4892596,2.7399533,2.7000644,2.0839863,2.1710944,1.7962699,1.7405378,1.1261479,2.2539284
2.1162171,1.3282990,2.9632230,2.4713492,0.9425600,1.2660508,2.1371965,2.2048635,2.2795415,0.8487411,1.0412475,0.6536666,2.5578701,2.5053058,2.5011187,2.4118664,2.5347600,2.1065378,1.6860014,2.2025490,2.5505910
2.4518213,1.1899431,3.6140471,2.3160172,1.5700973,1.3680624,2.8693666,2.1242161,2.3379343,0.6209140,1.1231500,1.2222095,2.8452466,2.5810790,2.0860922,2.3608820,2.7525377,2.7113183,1.2018884,1.8690419,2.4679468
2.5730541,0.5992808,3.4451516,2.3521867,1.4560226,0.7989709,2.8880248,2.1921334,1.8709828,0.8675581,1.0656831,1.8819330,3.2491817,3.2351103,2.0069726,2.1136358,2.7227936,2.2774260,1.3083818,1.8927414,2.5436487
2.2774155,0.7889240,2.5804503,2.4205341,1.6042111,0.6892778,2.2763391,2.0557480,1.8094040,0.9166329,0.9100969,0.6460765,2.6598125,2.6793237,2.0335381,2.2640216,2.4355462,1.9875283,1.0102624,1.6826539,2.2207010
2.1753538,0.7393613,1.5422598,1.7113494,1.3707056,0.6343277,1.7852266,2.0527208,2.0200496,0.3211733,1.0577048,0.5056255,1.7501447,2.1720333,1.8096889,2.4967656,2.3679748,1.7255478,0.9099455,0.9502621,2.1010199
1.6265365,0.2543466,1.5744300,1.6630808,0.9832708,0.1925528,1.6105541,2.0620980,2.2355297,0.0000927,1.1701260,1.1885223,1.4341434,1.9463708,1.8384476,2.3010671,2.2481065,1.5584799,1.0666468,1.4790883,1.7623726
1.8798630,0.6351179,1.9368938,2.3513887,1.4142152,0.7450352,1.3713983,2.4554961,2.1848361,0.6627933,1.2898716,0.6649220,1.2725736,1.9370284,2.4428151,2.2820179,2.3206775,1.6815776,1.3970097,1.7362225,1.8231629
2.6964495,1.2838104,2.0829523,2.2222307,2.1822608,0.6174362,1.6778716,2.6618550,2.6303408,1.1384920,1.3366652,0.3234147,1.6966648,2.0793726,2.5536144,2.2602856,2.3155346,1.5769954,1.4925967,1.8126575,1.7776437
2.8164506,0.9077774,2.3114247,1.7524040,2.3203340,0.4535522,1.4331145,2.2377980,2.5046959,1.0947753,1.1043296,1.0554047,1.8652760,1.7901659,2.6392999,2.3122272,2.1062517,1.6003723,1.3239089,1.6629593,1.5440162
2.9293101,1.2773302,2.1603220,2.2221217,1.8981243,0.7204216,1.2523776,2.1185622,2.2878819,0.7218024,1.0948416,0.6786318,1.2448542,1.5801557,2.5010414,1.7499390,1.9509323,1.2626173,1.4338174,1.3991923,1.3820896
3.2701490,1.3605292,1.0090123,1.9454864,1.6944221,0.7700562,0.5761561,2.2660687,1.9858776,0.9339072,1.1243752,0.0619940,1.2021610,1.2949649,1.9860095,2.0577865,1.4634807,0.9199862,0.8598133,0.8427067,1.1064385
2.2501032,0.4876424,1.3796101,1.8968887,1.5626899,0.4986019,0.4209286,2.0248084,2.0309606,1.0358661,0.9861225,0.4781196,1.2104967,1.1389124,1.3197470,1.7819319,1.4117858,1.2179862,0.5559397,0.9308717,0.7616945
2.2110484,0.7564881,0.5139577,1.4197863,1.5007935,-0.0110100,0.3519620,1.8720726,1.6386502,0.6640026,1.0056711,0.7027665,1.6381361,1.1642534,1.4231602,2.3764951,1.7215470,1.2757305,0.6188064,1.0256649,1.0901272
2.1211762,0.0564233,-0.2892967,1.1501604,1.5409653,0.2700203,0.2698987,2.0703115,1.6810060,0.2598461,1.0518001,0.1501908,1.5350114,1.2520045,1.0126017,2.2786305,1.7277794,1.0223167,1.1542572,1.2574093,1.2761840
1.7061149,0.1261123,0.0970344,1.0929301,2.0428720,0.2531648,0.1297690,1.8211979,1.6625042,0.0032534,1.0475996,-0.0634171,0.8876981,1.0854647,1.2262863,2.6023180,1.6881931,0.9677823,0.8487462,1.4385393,1.2108393
1.9437673,0.2115060,0.1878671,1.1981353,1.8814563,0.1734783,0.1829321,1.6971602,1.3602840,0.5833230,1.2128181,1.3068916,1.1142880,0.7542651,1.3305085,2.1577437,1.8395569,0.5792614,0.8938881,1.1229166,1.4555855
1.6393597,0.0840030,0.8626316,1.3949047,1.7914702,0.2011852,-0.0781234,1.9067537,1.1828289,0.7828285,1.1809703,0.8797705,1.1859432,0.8428524,1.0657878,1.7435071,1.8092042,0.5673766,0.8923756,1.1559813,1.1981502
1.3327873,-0.0641763,0.5089357,0.9179865,1.2326558,0.4260392,-0.0845062,1.8202189,0.6443444,0.5324960,0.9962690,0.2593607,0.7141948,0.8801256,0.7312779,1.9760559,1.6553926,0.7093353,0.6702085,0.9804743,1.1185371
1.3468530,-0.4882294,-0.3246026,0.7501469,1.1218865,-0.2132607,-0.2619017,1.5610334,1.0059929,0.6236152,0.9425477,0.5587376,0.7424904,0.7649699,0.3928600,1.4927679,1.6281818,0.6089220,0.4856170,0.3915033,0.8307332
0.8959976,-0.4634486,-0.6370366,0.7578036,0.9422078,-0.5557948,0.0841093,1.5895970,1.0079231,0.4574343,1.1209753,0.5746740,0.4220533,0.8327624,1.2301426,1.6586154,1.3891578,0.5488079,1.0392784,1.1246253,1.4414358
0.7824724,-0.0517970,-0.2608499,1.5114924,1.2593312,-0.1736357,0.0034810,1.7751495,1.0594177,0.8070897,1.0317694,0.2611131,0.7377977,0.7991220,1.3131205,1.7270585,1.5486186,0.4956880,1.1498545,1.2228862,1.2390788
1.1366647,-0.2260890,-0.2289246,1.6428255,1.7604673,-0.3922969,-0.3911056,1.6945438,0.7900173,0.2739418,0.9653292,0.4594589,0.6931399,0.4013082,0.6674907,1.4976100,1.2031903,0.4382994,0.5920889,1.2765909,1.0200191
1.4427520,-0.0538548,-0.1246903,1.3407439,1.3230400,-0.2622244,-0.1295947,1.8327446,0.6608394,0.6392982,0.9744744,1.0113535,0.1413334,0.6581704,0.9851220,1.4741526,1.1188693,0.4340098,0.5415024,0.8232197,1.2429787
1.0465871,0.4739214,-0.3802177,0.9543012,1.5753366,0.4188267,0.2012020,1.9907024,1.2711798,0.7747883,1.0533113,0.3488501,0.7554256,0.9663882,1.4135265,1.5859908,1.6686170,0.6757733,0.8688786,1.2204906,1.3829867
1.3027784,0.3603369,0.5695060,0.9250328,1.9371248,0.6507952,0.3213909,1.6095331,1.1585706,1.0042801,0.9943645,-0.0355737,1.0242517,0.8786621,0.9437023,1.0246730,1.3618703,0.8181486,0.5578527,1.3986608,1.3965044
1.4695419,0.2336648,0.2732089,1.0147367,1.2545418,0.2753486,0.1575299,1.5372214,1.1258920,0.6233833,0.9927541,0.4608366,1.0550778,0.9740232,0.6815177,1.5979154,1.4140034,0.7634096,0.7451849,1.3524623,1.2597250
1.2295898,0.0835222,0.1873113,0.8393962,0.7385562,0.3577261,0.3011857,1.5787196,1.2112943,0.3942138,1.0786458,0.1677650,1.0068511,1.0514901,1.0930141,1.4524810,1.1161284,0.6122478,0.9165369,1.1887991,1.0406053
1.5218010,0.7987185,0.6304290,0.8509981,1.3418245,0.6650707,0.6388375,1.6039649,1.1929679,0.6429682,1.1080140,-0.0030379,1.0100715,0.9432879,0.6448924,1.6828395,1.3813208,0.6165344,0.8245085,1.1631591,1.1176223
1.3845571,0.1175265,1.1501669,1.4692755,1.2708614,0.6984478,0.5886140,1.4952365,1.5357100,0.5077843,0.9791487,0.4469308,1.0835769,0.7295755,1.4678671,1.4379100,1.5198835,0.6844652,0.8397763,1.4235221,1.6692004
1.7705193,0.0551052,0.7485854,1.9529154,1.7002211,0.6089671,0.8917023,1.6787874,1.6797125,1.0432614,0.9506786,0.7870316,1.0946534,0.9107197,2.2546685,2.1535876,1.7531132,1.0141678,1.3187995,1.7888197,2.1615436
2.0528667,-0.2403339,0.7664145,2.2917881,1.5736828,0.2868294,1.1043688,2.0415475,1.9098374,0.9772937,1.0542924,0.2588139,1.4540166,1.2317406,1.7400774,2.4754202,2.3752546,0.8334033,1.3350531,1.7560408,2.0427272
1.6930544,-0.4715282,0.5020764,1.7565192,1.2339743,0.5474936,0.9597411,1.8773866,1.6580318,1.3906399,1.0147449,0.1713705,1.3420931,0.8987407,1.1993191,2.0173411,1.7851759,0.5993320,0.8293002,1.4464144,1.4706874
1.7190317,-0.4340191,0.1542713,1.4708250,1.1886278,0.1856069,0.6544489,1.8556926,1.3745549,1.5017936,1.1525621,0.0643448,1.1431556,0.8678755,1.0707072,1.8961126,1.6062846,0.8652403,1.0467854,1.5701501,1.5225614
1.4418240,-0.3917595,-0.5215293,2.0279541,0.8550494,0.6294191,0.6569679,2.1041148,1.2076735,0.3733818,1.1380801,-0.1318551,0.8000562,0.8024783,0.9563094,1.7033204,1.6263164,0.8444519,1.0936399,1.4468685,1.3013600
1.0727956,-0.2059713,0.2863601,1.5392706,1.0699135,0.8649910,0.3613556,2.1274066,1.1359736,0.3056514,1.1335979,-0.0048732,1.2006005,0.9598107,1.0846682,1.0479045,1.0962486,0.3415315,1.0866165,0.7671740,0.6036615
1.3769919,-0.9087474,-0.1629827,0.9654596,1.0686535,0.5191786,0.0174582,1.8136208,1.3753442,-0.1537289,1.0545429,0.4319218,0.9596372,0.5943143,0.4432643,1.0128230,0.9197708,0.0108213,0.7816926,-0.1042979,0.7578279
1.8003663,-0.7438923,-0.3918779,2.1130826,1.4859202,0.4672019,0.1977507,2.0002427,1.3213599,0.3929280,1.0618078,0.0844279,0.8704627,0.3156292,0.4306558,1.1975960,0.9196251,0.3325066,0.4569375,0.3659615,1.0787865
1.8457040,0.3370547,0.6062238,1.9430364,1.1036913,0.7015832,0.2322586,2.0823746,1.3742450,0.5271562,0.9826526,-0.2678896,0.7803708,0.7733928,0.2810676,1.4155238,0.5523497,0.5478932,0.8205808,0.6012053,0.9724530
2.1767621,0.0704922,0.6320556,1.4702569,0.9195995,0.4083928,0.1624368,1.9229439,1.2739824,0.3822398,0.8629135,0.4081033,0.3183863,0.6158450,0.2030777,1.1212337,-0.0028782,0.1083948,0.7012158,-0.1973694,0.1535570
2.0691199,-0.1645623,-0.2565197,1.6257852,1.0176995,-0.0030936,0.1723993,1.9520130,1.3404409,0.1526100,0.5827317,-0.0427135,0.2238281,0.5573805,0.8820532,0.5806349,-0.1016571,-0.0905488,0.4789310,-0.2833426,-0.2029772
1.8246316,0.5552473,0.1388109,1.7591807,0.6573404,0.1238005,0.1165142,2.2358537,1.0483248,0.3946120,0.8100480,-0.8002745,0.3435794,0.6569194,0.8772784,0.8111234,0.3803564,-0.1968794,0.5860794,0.2921438,-0.1431840
1.0164070,-0.1021222,-0.2584314,0.7309014,0.9128730,0.0205060,0.0092877,1.9563426,0.5544927,0.4723998,0.9118835,-0.3699051,0.5351946,0.3568310,0.1137756,0.5691991,0.3174106,-0.3357571,0.4098198,0.0309667,-0.0957767
0.8046569,-0.3659883,-0.2013067,0.4203408,0.0889866,-0.1388229,-0.3174273,1.3881304,0.4132872,-0.8822251,0.8201809,0.2286567,0.3312695,-0.1861061,-0.1769785,0.4598634,0.4626473,-0.1528415,-0.0307054,-0.4143180,-0.0511840
0.9112039,-0.4632078,0.1468816,0.8715513,-0.2289231,-0.2393124,-0.2116241,1.3438587,-0.1466183,-0.7040675,0.6638573,-0.1891483,0.4870358,-0.1799067,-0.2358308,0.3913724,0.4743245,-0.4199045,-0.0548617,-0.8263234,-0.2995307
1.2251282,-0.6029575,-0.7196143,0.6291119,-0.4059449,0.1683583,-1.0413982,1.3320982,0.1446740,-0.3973336,0.7083215,-0.7776380,0.0739001,-0.3051693,-0.6325923,-0.0853374,0.0462829,-0.6215015,-0.0465378,-0.9266025,-0.3482999
1.6747160,-0.1535471,-0.9611400,0.7789409,-0.5277154,-0.3419331,-0.9845918,1.2128030,0.2039421,-0.0056128,0.7698862,-0.5204329,-0.3490952,-0.5280688,-0.5929239,-0.1436614,-0.2808020,-0.7416123,0.0545352,-0.6685138,-0.5151411
1.9563804,0.3325491,-0.5696416,2.1892076,0.3439761,-0.5414114,-0.6903195,1.8687910,0.8101150,0.3816255,0.6136861,-1.1102518,-0.5619199,-0.5759977,0.4834373,0.1920763,0.0779901,-0.3537619,0.4066783,-0.3050106,-0.2683071
2.8201702,0.4393413,-0.4535381,3.0735862,1.2245638,-0.7118825,-0.7924106,2.3108170,1.9824039,0.9962928,0.7151354,-1.4223630,-0.3103907,-0.1010340,1.0303879,0.8456236,0.5184329,-0.3672000,0.8823839,-0.0744800,0.3850053
2.4728067,0.3612493,-0.7843198,2.1777444,0.3721166,-0.3682868,-0.4791582,2.2796738,2.1014135,0.5541602,0.7697498,-1.1227618,-0.5531738,0.0482967,1.1492481,1.2815636,0.6313501,-0.0168451,0.9065437,0.3568676,0.9639691
1.9416289,-0.4038858,-0.4747030,2.3073025,0.5635127,-0.1378787,0.0511085,2.1458492,1.8775121,0.4069884,0.8412344,-0.7303446,-0.0935906,0.4424087,2.4582231,1.6713634,0.8197586,0.6581089,1.3035711,0.8058776,1.3662590
2.2643073,0.4474476,0.6249013,2.6756303,1.1777760,0.3098625,0.3803569,2.1446781,2.3862236,0.3510666,0.8195121,-0.7808068,0.7459039,1.0665693,1.9185791,2.2454925,1.2736063,0.6885036,1.5197423,0.9770404,1.5276206
2.4902596,0.7685680,0.2855915,2.5604935,1.3455981,0.2048189,0.1032044,2.0323372,1.9181449,0.1921194,0.6667168,-0.8489555,0.4289530,1.0510015,0.8851691,1.6094594,0.6607374,0.2567560,0.9109570,0.4860677,1.0910630
2.4302897,0.9996535,-0.2827509,2.2978039,0.7486699,0.2557665,0.1853815,1.8642735,1.8013316,0.5599617,0.6678890,-0.5304059,0.3599816,0.4201219,0.4818163,1.1036370,0.3682400,0.3203288,0.5725028,0.0603374,0.8636907
2.1580157,0.3077048,-0.1401189,2.1539199,0.7088232,-0.1548138,-0.1780359,1.8362583,1.2283027,-0.2596812,0.7523265,-1.1006881,0.0141545,0.3233331,0.3642462,0.7924499,0.2952224,0.0376214,0.3788721,-0.3419681,-0.0078017
1.8291725,0.4397728,-0.4985277,1.6460568,0.6077605,-0.1902856,-0.4963313,1.5454258,0.9355374,0.2758438,0.8030507,-0.9519978,-0.1234830,-0.0129744,0.4551371,0.7382448,0.1658788,-0.6241580,0.1063995,-0.5804574,-0.2518170
1.5997040,-0.4762786,-1.2356803,1.7220563,-0.0689052,-0.1566625,-0.3999382,1.4260061,0.8155005,-0.3294091,0.7161414,-0.2989777,-0.2141969,-0.0645655,0.5195156,0.6152729,0.0791051,-0.5845473,0.0450751,-0.3098133,0.0072411
1.3966957,-0.2864929,-0.8401391,1.7936060,-0.0082172,-0.2341058,-0.1181344,1.6746321,0.6443138,-0.3596106,0.7016886,-0.6914732,0.0330400,0.0470855,0.7127101,0.6076045,0.4787033,0.0249131,0.4511810,-0.5098591,0.3004312
1.6059357,0.4021032,0.1822612,1.7647371,1.0090929,0.3848156,-0.0486803,1.8597722,1.3389040,0.2709459,0.5763625,-1.0178661,0.1626663,-0.1246589,0.9934052,1.1211221,0.4208991,-0.2319596,0.3704763,0.0375102,0.2097315
1.3906323,0.2370363,0.2772382,0.6992307,0.5261461,0.2156335,0.0075839,1.9681385,1.5195076,0.0011812,0.6203395,-0.1814982,0.2444066,0.1028518,1.0886810,0.9150855,0.2188846,-0.2804062,0.4012507,-0.2883972,0.0580448
1.5393186,0.1640053,0.2075621,1.4250735,0.8504440,0.1871295,-0.2603976,2.0813596,1.8083054,0.2663525,0.7188293,-0.0728965,0.5840121,0.1391417,0.7909576,1.5480285,0.2047361,-0.1230004,0.8122481,-0.2100147,0.1415219
1.9603335,0.3549247,0.4466113,2.0725265,1.4787636,-0.0278464,-0.3689350,2.0229554,1.3443520,0.6983551,0.8187164,-0.4319870,0.6166582,0.4794750,1.2704134,1.6406273,0.2894352,-0.2259766,0.7912024,-0.1054307,0.2671903
1.6685766,0.2732218,0.3069420,2.0201995,1.5758408,-0.1834981,-0.3105841,1.8369364,1.2180251,1.0770515,0.8447854,-0.0442031,0.6710625,0.5906436,1.4957719,1.1323324,0.7242659,-0.0989642,0.9173207,0.6689402,0.4773696
1.9305191,0.3228913,0.2197364,1.7984703,1.1584718,-0.6859868,-0.4280048,1.9958550,1.7162683,1.0116559,0.8995080,0.2708780,0.5500565,0.6275651,1.2868323,1.4669878,0.7528345,0.0705311,1.2526529,0.4291774,0.3335400
1.7647146,0.0102126,0.1267965,1.5846248,0.6745393,-0.3592211,-0.4732430,1.6806450,1.1599141,0.5251058,0.8707997,-0.3822883,0.8740945,0.1046860,1.1977131,0.8782513,0.6630780,-0.1691458,0.9707872,0.1364214,0.3067588
1.7327437,-0.2184844,-0.2497274,1.2375045,0.2269685,-0.3113720,-0.4335953,1.7045788,1.2718697,0.6747748,0.7058483,-1.0399756,0.6054559,-0.0230592,1.3332381,1.1444069,0.2688136,-0.2204794,0.8853961,-0.4749667,0.5528671
1.5572562,0.1171814,0.6327048,1.5085374,0.6801394,-0.0830428,-0.2993405,1.6227915,1.1237540,0.3650256,0.6080607,-0.8082674,0.4562600,0.1127024,0.4861862,0.3610445,-0.3814294,-0.2330797,0.9672949,-1.1784053,0.5681989
1.8557976,0.3839419,0.6609944,2.2533696,0.3460900,-0.0651685,0.1096978,1.7836368,0.8501688,-0.2199079,0.4723406,-1.1528513,0.6437287,0.3219625,0.4140380,0.1571786,-0.0446530,0.0292988,0.9812249,-1.0609856,0.1853664
1.8507832,0.5187294,0.2447681,1.6644341,0.3874623,-0.0388595,0.0575358,1.9401089,0.7978851,-0.6306978,0.4924147,-1.5337108,0.5895208,0.7125279,0.9449285,0.4919029,0.2195693,-0.0679693,0.8821037,-0.6885545,0.2500566
1.8064641,0.3965473,0.2542305,0.9140928,0.1862277,0.2392127,-0.1430162,1.6614380,0.5449570,-0.1448415,0.6302972,-0.5000846,0.7430513,0.3861471,0.4915508,0.3198675,0.4231530,0.0089110,0.3972980,-0.2539065,0.2486582
1.5440309,0.2699161,-0.1380206,0.7604671,0.2146367,0.0647961,-0.2120285,1.5120332,0.8572562,-0.5285867,0.6903447,-0.3980941,0.4478420,0.2862947,0.3692043,0.4851601,0.4614997,-0.1100290,0.8579615,-0.0244583,0.1341369
1.4180073,0.1839310,0.0692118,1.2248375,0.6007620,-0.2504314,-0.2428050,1.8626654,0.8156660,0.4696071,0.7122489,-1.0887195,-0.0055666,0.0969752,0.7163033,0.6602584,0.5477547,-0.1658293,0.4395891,-0.6606355,0.4056123
1.5422401,-0.1180724,-0.4861781,1.0900329,0.3797113,-0.3855194,-0.6114045,1.5378003,0.8486229,0.1932265,0.6931576,-1.0536798,-0.1230556,0.0616969,0.5735932,0.1021116,0.0054222,-0.7612913,0.3984198,-0.7661451,-0.2951672
1.6054649,-0.1433914,-0.2599904,1.2307959,0.0993504,-0.7331512,-1.3417087,1.3716084,0.7487534,-0.7975265,0.7062169,-0.5733022,-0.4347039,-0.5081698,0.2205573,-0.0701660,-0.4212352,-1.0633370,0.2335294,-0.8823657,-0.2413324
1.2884160,-0.5014048,-0.4943894,1.5484729,0.3207557,-0.3543677,-1.3181518,1.7789776,1.0198395,-0.0068465,0.7090954,-1.1022080,-0.5536348,-0.5628436,1.4157023,0.0739218,-0.2023161,-0.5188868,0.4581671,-0.5866508,0.4094522
1.3490435,0.0506691,-0.4176962,1.5863014,0.5421860,-0.3848499,-0.6750439,1.8752686,1.3837968,0.3557931,0.7457126,-1.1670157,-0.3121181,-0.3098319,1.0877570,0.7655143,0.0520989,-0.2305479,0.6091855,-0.4130246,0.4426814
0.9228135,-0.7504264,-0.9915992,0.7008112,0.6031148,-0.4664236,-0.6300010,1.7663087,1.4135920,0.1495816,0.6958072,-0.3355618,-0.4046561,-0.1480275,1.0226494,0.6253849,0.1298296,-0.2695953,0.7573676,-0.2140674,0.2975881
0.4216816,-0.0541140,-1.0346192,0.3784661,-0.3182688,-0.1069612,-0.8260866,1.7713342,0.8786018,-0.2060326,0.7582157,-1.0455867,-0.3217115,-0.3741684,0.3801252,0.9399347,0.3147917,-0.1808333,0.3290214,-0.3961941,0.2447225
0.2508125,0.0803963,-0.7663533,-0.3970546,-0.5775236,0.1342598,-0.5999804,1.3785744,-0.2363659,-0.7758881,0.9314095,-0.5576014,-0.0945330,-0.4177903,-0.2551394,0.8720437,0.6546159,-0.2457364,0.2581463,-0.1750278,0.4844976
0.1744422,-0.1553725,-0.5926742,-0.3777312,-0.2863388,0.7631230,-0.4475228,1.1767002,-0.5303235,-0.9533898,0.8284109,0.5013480,0.4088866,-0.0277561,-0.4303876,0.7626989,0.4680646,-0.3691961,0.3570169,-0.3235138,0.4712305
0.1709938,-0.0326714,-0.4881050,-0.1985705,0.1252374,0.1352664,-0.3876759,1.1718050,-0.5941529,-0.5045012,0.7876486,0.3574886,-0.0371054,-0.1480506,-0.3908627,0.6148682,0.7708973,-0.1203086,0.5943408,-0.2369423,0.2358581
1.0716444,-0.6206675,-0.5950953,0.2990511,0.0911777,-0.1822306,-0.4914083,1.1558850,-0.3943403,-0.2653381,0.9892291,-0.0580916,0.1999084,-0.2583947,-0.4991413,1.0696009,0.9798973,-0.1952608,0.4655242,0.1663679,0.2970712
1.0409467,-0.5914297,-1.2985972,-0.0208708,0.0023931,-0.0908045,-0.6063672,0.9799703,-0.2187052,-0.0490634,1.1149758,-0.0504140,0.1408968,0.2711942,-0.8606405,0.8296173,0.7606120,-0.4454129,-0.0616445,0.1715632,0.3003508
1.0254370,-0.3695191,-1.0943121,0.1710051,0.5378064,-0.5533907,-0.9085799,1.1373391,0.3061856,-0.2020452,0.9963824,0.2396514,-0.2544838,-0.1062052,-0.4007440,0.9214235,1.0264497,-0.3933721,0.0601254,0.0038820,0.2613742
1.2997811,0.0104429,-0.7251399,0.5440208,0.7987831,-0.6420369,-0.8058096,1.5534611,0.8253561,0.2422067,0.9728175,-0.9413819,-0.1089391,-0.5397475,0.2274802,0.8438888,0.8042915,-0.6437588,0.1611674,0.1359045,0.4080234
1.2620574,0.0838876,-0.6345978,0.0679049,0.5150011,-0.5561277,-0.5890812,1.6983732,0.6873761,0.5301805,1.0315464,-0.8562886,-0.0768838,-0.2979506,0.3544079,1.2682593,0.1554849,-0.7103522,0.4945217,-0.0108720,0.2782772
0.7639338,-0.1050713,-0.3029256,0.1670203,0.1036947,-0.4703257,-0.6504954,1.3256437,0.1428920,0.1007652,0.8546143,-0.2543934,-0.0446492,-0.4889672,0.4671924,1.0962728,-0.0045346,-0.4309702,0.4244840,0.0679051,-0.0869861
0.4845143,0.1710799,-0.0446749,0.2032983,0.2055189,-0.3840905,-0.4192587,1.4486550,0.3978917,-0.4319131,0.8338556,-0.5405262,-0.0422355,-0.3261245,0.2487945,0.9132752,0.3219025,-0.4962563,0.7632521,-0.2441063,0.2642426
0.6800191,-0.2197740,-1.1687062,0.2260683,0.4040086,-0.4184500,-0.9878535,1.5305140,0.1521253,0.1784296,0.9150349,-0.7359950,-0.1268749,-0.3394802,-0.3963645,0.7968834,0.1952199,-0.5931054,0.6980088,-0.0522580,0.4863739
0.7270452,-0.4790602,-1.3609890,0.0356926,0.3744080,-1.0160457,-1.6811711,1.1137871,0.1012220,0.5264610,1.0105866,0.0567580,-0.1763879,-0.5574781,-0.8335772,0.7736939,0.0959354,-0.8966694,0.1783745,-0.5228019,0.4504541
0.8639053,-0.9398164,-1.3233167,-0.0657459,0.2569989,-1.3440701,-1.4966390,1.2051859,-0.3389814,0.0570808,1.1399621,-0.3736670,-0.6126611,-0.7571923,0.0128884,1.0017200,0.3041883,-0.5712722,0.4044273,-0.5952629,0.4048621
1.1309938,-0.9248017,-1.9966627,0.2280761,0.5508828,-0.9577416,-1.3675327,1.2493607,0.2718702,-0.1472630,1.1900078,-1.2486032,-0.3768653,-0.8162007,-0.2281071,1.0114473,0.7253270,-0.6859217,0.4446939,-0.2237591,0.6086758
0.7949141,-0.4568348,-1.4861391,0.4085631,0.0835853,-0.9904492,-1.4359677,1.2451615,0.4981396,-0.0100674,1.0235622,-0.6583471,-0.8739083,-0.8543711,-0.4389731,0.6244467,0.3875366,-0.9172891,0.0617876,-0.5551318,0.2688368
0.4300592,-1.1299045,-1.2039602,0.0564161,0.0808606,-0.6259798,-1.0324848,1.1152643,0.4733351,-0.2899470,0.8046926,-0.3050088,-0.6310890,-0.8195315,-0.1352391,0.9786209,0.4376647,-0.6461700,0.2285629,-0.4636927,0.7054550
0.5871192,-0.3342228,-0.9673697,0.3304185,-0.0524804,-0.0363224,-0.3508280,1.3659769,0.5484321,-0.3543507,0.8155332,-0.8590974,-0.0246186,-0.4201326,0.7632847,1.0070611,0.6838274,-0.5870202,0.7112108,-0.0857993,0.4789220
1.3464389,0.1462106,-0.8385373,0.2573593,0.0486441,-0.0560306,-0.0203956,1.4359118,0.5899785,-0.0511044,0.8540268,-1.0818908,0.4605648,-0.1392573,0.2763926,0.6968609,0.4006215,-0.2803372,0.7034829,-0.3730970,0.2985765
1.2158084,-0.3612869,-0.0576298,-0.0295564,0.0625283,-0.1311064,-0.0923917,1.2210797,-0.0020896,0.3426358,0.8362644,-0.3663615,0.0414450,-0.1764057,0.4368202,0.6202710,0.3192590,-0.4944532,0.1442267,-0.8144642,0.2352266
1.1876986,-0.0599681,0.0771057,0.0044250,-0.4017812,0.0726979,-0.3398117,1.5444285,0.3442806,-0.3384892,0.8605372,-0.1796896,-0.2751625,-0.6313570,0.1910177,0.6044241,0.2783746,-1.0603338,0.0398863,-0.7215186,0.1045624
1.0984769,-0.4192334,-0.5490509,-0.1023589,-0.1909245,-0.4649723,-1.0940083,1.5893880,0.3336320,-0.7348458,0.9219577,-0.5973327,-0.2128845,-0.6895122,-0.3494204,0.7545505,0.3797820,-1.2399040,-0.0419050,-0.7484491,-0.1303620
0.6220379,-0.8173885,-1.1549660,-0.5258676,-0.1128770,-0.7707508,-1.3067712,1.0154108,-0.2019900,-0.2430974,0.9780564,-0.5133891,-0.5306144,-0.3616032,-0.8420650,0.2787472,0.4157884,-1.3740587,-0.3291103,-1.0814674,-0.3132344
0.3393370,-0.5977314,-1.2380358,-0.5124208,-0.0911919,-0.5105038,-1.2091111,1.0195849,-0.2078269,-0.5523366,0.9971594,-0.4933514,-0.3581491,-0.7092817,-0.9934480,0.5732110,0.3784088,-1.2233248,-0.1530392,-1.1162926,-0.1148434
0.7730671,-0.6152447,-0.5948842,-0.0884495,0.5832308,-0.1493363,-0.9075961,1.1647273,-0.0767950,-0.6741818,1.0125003,-1.1003344,-0.2012077,-0.7528581,-0.4219764,1.0360018,0.4744167,-0.9996333,-0.1795952,-0.7562354,0.4253081
1.2910357,-0.4659336,0.0319140,-0.1453777,0.1837322,-0.3128752,-0.4861793,1.0285238,0.1144372,-0.5510092,1.0825584,-0.2423117,0.1740122,-0.1363938,0.0500879,1.0533055,0.7040765,-0.7637168,0.5097123,-0.3380687,0.4901665
1.4925104,-0.2014556,0.2698259,0.2491867,0.4149463,-0.2375800,-0.1023671,1.1546047,0.4785180,-0.5262105,0.9265218,0.1306015,-0.2500925,-0.0085806,1.0675459,0.4852536,0.8450168,-0.3223376,0.6934714,-0.8886015,0.6862283
1.6884986,0.2850889,-0.3031511,0.9620031,0.7470108,-0.4815996,-0.1564064,1.3996217,0.3868664,-0.3874099,0.7967630,-0.8372937,-0.0684440,0.1175270,1.9502583,0.6886104,0.5839181,-0.0052832,0.9424523,-0.4137770,0.9918138
1.8658556,0.1629022,-0.3059284,1.4023957,0.6323328,0.1959395,0.3369162,1.5853091,1.2128981,0.0498292,0.6882310,-0.5546394,0.2892582,0.5014374,1.6267279,0.6757696,0.7123648,0.2812926,0.6733124,-0.1879011,1.2144467
2.5268919,0.2686242,0.4385098,1.7932720,0.7916372,0.1127208,0.8024755,1.9279565,1.6440901,0.0704400,0.7210125,0.1071487,0.6494878,0.7410164,1.0301231,1.0939074,0.9453292,0.1212869,0.9329174,-0.1064835,1.4304551
2.2294257,0.2652855,0.1938632,0.9527316,1.2794129,-0.2936395,0.6530211,2.2115209,1.5463316,0.8301430,0.7091287,0.0749442,0.7291298,0.6630256,1.2298123,0.9962251,0.8132967,0.0375665,1.0719163,-0.2054707,1.0374620
1.5789198,0.0790477,-0.1275504,-0.0640424,1.0281736,-0.5058049,-0.0871829,1.6859754,0.8765278,0.4627120,0.7849532,-0.7588224,0.4607235,0.4815949,0.8715857,0.8754505,0.5057918,-0.2166355,0.5003274,-0.0673863,0.1985607
0.5867009,-0.8804020,-0.0994476,-0.3639615,-0.4065475,-0.2200961,-0.1635992,1.1172765,0.5602896,-0.2901712,0.8053985,-0.0705751,-0.0544209,0.1662103,0.2552220,0.4259422,0.4925983,-0.2931048,0.4383225,-0.6121496,-0.0446352
0.3535401,-1.4750724,-0.6651530,-0.9495100,-0.3010027,-0.4509322,-0.2700171,0.8710654,-0.2413255,-0.5153625,0.8241136,-0.5718761,-0.2016098,-0.1668292,0.5508798,0.6085483,0.4409076,-0.0612599,0.6199713,-0.4637029,0.9244539
0.5946490,-0.5812066,-0.7354777,-0.3587374,0.3277930,-0.9652261,-0.4028852,1.1669416,-0.0609017,0.0134175,1.0448704,-1.6107968,0.2495119,-0.4043054,0.9572747,0.8826667,0.4457929,-0.1175680,0.8995312,-0.4601598,0.6779848
0.5310566,-0.3495252,-1.2938949,-0.4115916,0.5698417,-0.3971585,-0.3910624,1.0285250,0.0934309,-0.2820555,0.9487979,-0.9059876,-0.0235725,-0.3872494,0.6916761,0.8727396,0.8983626,-0.2449586,0.6956736,0.2129604,0.7900628
1.0503516,-0.2897415,-0.8576075,0.2889746,0.7043236,-0.5647234,-0.0278600,1.0479993,-0.0259538,-0.2613587,0.7575087,-0.2434372,-0.3405352,0.1176883,1.1533806,0.8107701,0.4292106,-0.3447145,0.6310791,-0.1108771,0.8639762
1.5718224,0.2372426,-1.4404668,0.9538741,0.7368457,-0.2193547,0.0264569,1.5272497,0.5743613,-0.2614534,0.8894475,-1.0526880,-0.0832893,-0.3290325,1.3163196,0.5761257,0.0815739,-0.6667769,1.0526223,-0.5767800,0.2176116
1.5793277,-0.4165376,-1.2653621,0.2746952,0.6702686,-0.2839172,-0.5624076,1.5286546,0.6925971,-0.4643652,0.8911752,-1.1660138,-0.1659908,-0.5411660,0.4508780,0.3180962,0.1191367,-0.9664994,0.5444319,-0.6534330,-0.5027153
0.3061212,-0.8866352,-1.0159824,-0.3961470,0.0325595,-1.0561641,-0.7746613,1.1294010,-0.6660241,-1.0358932,0.7401689,-0.4169828,-0.6064330,-0.5041938,-0.4474005,-0.0782565,-0.8213439,-1.2412879,0.0471234,-1.2550664,-0.9788152
0.2722856,-0.9263565,-1.0739092,-0.5935236,0.0927565,-0.6244623,-0.9203539,0.7897967,-1.0406291,-1.6214674,0.6447163,-0.7365798,-0.9569271,-0.8206943,-0.4469244,-0.2018108,-0.6031036,-1.2655804,-0.0954452,-1.6163837,-1.2383294
-0.1105087,-0.9326643,-0.6859075,-0.3391696,0.1894432,-0.7784687,-0.9539797,0.8993251,-0.4648251,-1.2953346,0.9356322,-1.2176878,-0.6607132,-0.8647844,-0.5349047,0.0306611,-0.2143351,-1.4031101,-0.2915810,-1.5400814,-1.0828639
-0.0942241,-1.1706426,-1.1316971,-0.5723875,0.0752848,-0.4214303,-0.8046449,0.6263456,-0.9179664,-1.6055059,0.9259616,-0.5127653,-0.8405734,-0.8014254,-0.4854060,0.0135419,-0.1454743,-1.1102921,-0.6415021,-1.3020247,-0.9025094
0.5285486,-0.7011163,-1.1486131,0.1195399,-0.1000338,-0.3946367,-0.5794715,0.8326108,-0.5616770,-0.5149472,1.0060309,-0.8359336,-0.7845168,-0.8611684,-0.0283857,0.5587909,-0.1801981,-0.9233224,-0.1315402,-0.9163104,-0.2899652
0.7647595,-0.2628170,-1.2273785,0.3850086,0.7941992,-0.4434821,-0.4180152,1.1230427,0.4990349,-0.7033832,0.9196121,-1.1453617,-0.6135541,-0.3611260,0.4739338,0.7875359,0.4838647,-0.5416248,0.6804450,-0.2333257,0.1144605
0.8583432,-0.3831647,-1.3535347,0.2038503,0.9113684,-0.6324400,-0.6324447,1.0700427,0.1973393,-0.1798001,0.9308519,-0.7153668,-0.1653946,-0.1640255,0.3994007,0.1919706,0.3585492,-0.6128730,0.3079377,0.1676914,0.3046723
0.3520875,-0.8589993,-1.2595023,-0.3342839,0.4512967,-0.3939358,-0.9987857,0.8321887,-0.1366334,-0.7929603,0.8423913,-0.7218851,-0.2362901,-0.4614271,-0.1975864,-0.1262856,-0.5477806,-0.9794151,0.1251803,-0.3521345,-0.1036763
0.1508022,-0.3379035,-0.6770591,-0.3363644,0.7542098,-0.5272062,-0.5142322,1.1408390,-0.2210516,-1.5467789,0.8148677,-1.2320771,-0.4402484,-0.4051659,-0.0073346,-0.3367316,-0.0970072,-0.6978659,-0.0143735,-0.4230837,0.1284178
-0.2099198,-0.3751194,-0.0413556,-1.4726744,-0.1482390,-0.6066390,-0.5631898,1.3464575,-0.7101773,-1.0389137,0.8243558,-1.0073563,-0.1695776,-0.2662362,-0.3368138,-0.6866871,-0.0213837,-0.7832357,-0.0205547,-0.5138223,0.1811698
-0.8750497,-1.2610952,0.0952075,-1.6190422,-0.6408675,-0.1030122,-0.6377905,0.6423142,-0.8812522,-1.5116632,0.7767258,-0.3005810,-0.3143374,-0.3984358,-0.8858392,-0.7043047,-0.2296999,-0.6974448,-0.0038721,-1.0939364,0.1721521
-0.2186770,-0.8977313,-0.5815682,-0.8609071,0.1763219,-0.1739763,-0.8608712,0.4930795,-0.7039681,-1.4063230,0.7174609,-0.6986083,-0.2609428,-0.4608308,-0.1187211,-0.5926344,-0.1474667,-0.2336418,0.0132228,-1.1028645,0.6656258
0.0662613,0.0063518,-0.7610711,-0.9574854,0.3001555,-0.5023269,-0.7844070,0.6693618,-0.6805733,-0.8047548,0.7474548,-1.3524102,-0.6933915,-0.5535208,-0.5441816,-0.2972388,0.1281336,-0.5444231,-0.0278271,-0.6722024,0.1443294
0.0932104,-0.4387918,0.0053227,-0.8862054,0.1971479,-0.8836869,-0.6669843,0.4649750,-0.9826891,-1.2241060,0.6448200,-0.9298427,-0.7128661,-0.3170961,-0.2236078,-0.1427428,-0.3389537,-0.8349808,-0.0490599,-0.4654047,0.0734811
0.3503254,-1.2593557,-0.0153620,-0.7189041,0.6554301,-0.6442289,-0.8321561,0.3617126,-0.6353936,-1.3089293,0.6532233,-1.3138471,-0.7682226,-0.4787942,-0.0424780,-0.1294807,-0.6306207,-0.9006520,0.0611834,-0.8646471,-0.0915261
0.6453398,-1.0235677,0.0583204,-0.6029234,0.7338388,-0.5549399,-1.3366549,0.7638277,-0.0868854,-1.1699314,0.6747701,-1.9629551,-0.5692506,-0.5884343,-0.3047317,-0.2226843,-0.5245488,-1.0246189,0.3560939,-0.9020903,-0.8329397
0.0229576,-1.1727623,-0.5767213,-1.5249227,-0.1320694,-0.6940646,-1.2346411,0.6903165,-0.4994355,-1.3898911,0.6497602,-1.4792354,-0.7331642,-0.6597638,-0.5774516,-0.5689783,-0.6291556,-1.2077230,-0.2919924,-1.1443250,-1.2050149
0.1220414,-0.9924878,-0.8827379,-1.1597605,-0.0838415,-0.3944557,-0.7550922,0.4478165,-0.5109427,-1.2962996,0.5150717,-0.5325519,-0.9299944,-0.8634331,-0.3014440,-0.2742707,-0.6528034,-1.1537149,-0.5733704,-1.1693285,-0.3834162
0.2900497,-0.5228837,-0.2270212,0.0604742,0.0397787,0.1117345,-0.7303039,0.6898466,-0.2952884,-1.6212877,0.6300174,-1.4693435,-1.0763083,-0.5720224,0.0071762,-0.0810543,-0.2859536,-0.7638737,-0.0197674,-0.7081647,0.4275198
0.5518113,-0.4765988,0.5926895,-0.8785158,0.2740785,-0.0892630,-0.5810893,0.9909115,-0.1071438,-1.4964542,0.7021068,-1.4312613,-0.2620575,-0.5807237,0.4653038,-0.2406720,-0.3142430,-0.4461767,0.1092310,-0.7509132,0.1455848
0.3563633,-0.8928908,0.2128649,-1.0197113,0.3495623,-0.6290011,-0.9156461,1.2557153,-0.0364738,-0.9804800,0.4762824,-0.6315474,-0.2992288,-0.4980038,-0.0004106,-0.7461668,-0.5232244,-0.4590654,-0.1676528,-1.1971418,0.0504630
0.6929494,-0.5025683,0.2157771,-0.5677893,0.5571362,-0.6571513,-0.5173754,1.1422261,0.0833473,-0.5605791,0.7221735,-1.0131235,-0.8631552,-0.7042593,0.2039256,-0.3558031,0.1724986,-0.3764959,0.0416453,-0.9728406,0.2446847
0.6687663,-0.3316732,0.3995607,-0.5808630,0.8138483,-0.1450124,0.0273190,1.3456811,0.2556832,-0.6137354,0.8130795,-1.0454514,-0.6498089,-0.5675669,0.3563522,0.3501733,0.4986333,-0.5018620,0.4484404,-0.5084463,0.5630104
0.7883157,-0.9290384,0.6452892,-0.1059158,0.0889048,-0.5730289,0.1598195,1.0871538,0.4737254,-0.2734866,0.7620861,-0.1591347,-0.4726253,-0.2281716,0.2974680,0.6741623,0.7192044,-0.2915289,0.5465305,0.2152149,0.9399571
1.1362193,-0.4375729,0.2255589,-0.0745412,-0.0273118,-0.8643472,-0.3391340,1.0462670,0.3399200,-0.0462920,0.8392411,-0.2763453,-0.2452155,-0.2331131,-0.2035071,0.1045346,0.6192800,-0.1281335,0.2460762,0.4937437,0.3768527
0.9212210,-0.2864584,-0.0408121,-0.0747854,0.1970194,-0.1956685,-0.4050999,1.1492610,-0.2215100,-0.5715920,0.9377229,-1.5318357,-0.7094121,-0.2393342,-0.1942113,0.1323284,0.5255511,-0.1210802,0.0364066,0.0289491,0.3127777
1.1140964,-0.5071877,0.3838771,-0.1329819,-0.2505327,-0.5412136,-0.3940504,0.9073388,-0.3620956,-0.2508025,0.8257247,-0.5433024,-0.2565167,-0.1823675,-0.3146435,0.0350099,0.4012766,-0.1820580,0.0666375,-0.2780752,0.1677409
1.1316077,-0.6039407,0.7208593,0.0454243,-0.4922421,-0.5732089,0.2505712,0.8180083,-0.0476779,-0.6675011,0.7247512,-0.3437286,-0.1907444,0.0060774,0.0479603,-0.5264711,0.0555648,-0.0982655,0.1022952,-0.3523054,0.3105809
1.0570322,0.1594291,0.9815506,-0.2808373,0.3242300,-0.1780998,0.4475178,1.0657636,-0.0780307,-0.3958664,0.6535600,-0.8958038,-0.2742908,0.0176324,0.3639523,-0.2058400,0.1724638,-0.0124542,-0.0433306,-0.2360265,0.7933881
0.8466386,0.6662134,1.0408698,-0.3514194,0.3014840,-0.2719560,0.1788063,1.0812795,-0.1530967,-0.4381318,0.6311193,-0.6945338,0.1139023,-0.0696893,0.1184689,-0.0563093,-0.0314868,-0.1400253,-0.0950720,-0.6333708,0.4678615
0.8696223,0.4398402,0.3681964,-0.5635076,-0.7774214,-0.8724946,-0.1524133,1.0231887,-0.3415031,-0.8020502,0.5516695,-0.0070992,-0.0188929,-0.1611864,0.2312727,-0.2640868,-0.1781701,-0.3200938,-0.2804370,-0.3614406,0.2499693
0.5374780,-0.3928267,0.5349911,-0.4305313,-0.5549437,-1.0427372,-0.1433162,0.9105095,-0.4162784,-0.7013878,0.6545016,-0.5159428,-0.1275668,-0.4066473,-0.0642238,-0.3477371,-0.0635436,-0.6900789,-0.2564686,-0.5392778,-0.0057677
0.6500681,-0.3765194,0.3406122,-0.3916007,0.4099524,-0.3802385,-0.2375189,1.1693052,-0.5184685,-0.9933019,0.7953201,-1.3675767,-0.1603449,-0.4986966,-0.1049965,0.1811614,-0.5142987,-0.5574336,-0.0414283,-1.0131440,0.0968801
0.8866794,-0.7744171,-0.0654692,-0.5823828,0.3067718,-0.4929776,-0.3372679,1.0150776,-0.1580313,-0.2132075,0.8150833,-1.1839523,-0.4499201,-0.7172024,-0.7778115,-0.5121080,-0.8310956,-0.9106506,-0.4019285,-1.4148266,-0.8354915
0.4906130,-0.5908147,-0.5779220,-1.0052038,0.6377254,-0.4732543,-0.6888838,0.7913080,-0.7627014,-0.8971285,0.7512947,-1.5417266,-0.7685089,-0.9256626,-1.2600039,-0.6376411,-1.1597944,-1.1947629,-0.5603336,-1.8033041,-1.0718862
0.1525819,-0.7879124,-0.8919922,-1.0425723,0.6297653,-0.5220168,-1.0064049,0.7963549,-0.7916702,-1.3468176,0.7244647,-2.0477760,-0.9478334,-1.0666612,-0.9826708,-0.8449251,-1.3479441,-1.4346467,-0.5973474,-1.8890355,-1.0039154
0.0721688,-0.8714558,-0.7815003,-1.0691181,1.1251121,-0.8256354,-0.8248472,0.8757591,-0.6094466,-1.2181784,0.7625607,-1.5597501,-1.0984172,-0.9755184,-0.9604618,-0.9950274,-0.8352725,-1.5179198,-0.7255987,-1.8620384,-0.7281744
-0.2744497,-1.0828067,-1.1705989,-1.4456317,0.2624191,-0.7431144,-1.1600426,0.5372798,-0.8318892,-1.0178567,0.7122064,-1.2516689,-1.4313797,-1.0890527,-0.3113035,-0.8631311,-0.9378327,-1.5132285,-0.4544292,-1.6443697,-0.3206365
0.1324292,-0.4949078,-0.8763723,-1.5569366,-0.1019751,-0.5237259,-0.8891404,0.6061504,-0.9225531,-1.7274605,0.6619267,-1.7056818,-1.3981196,-1.2487298,0.4051290,-0.5553417,-0.2165765,-1.0343899,-0.2696708,-0.7465382,0.3714483
-0.0007942,-0.6330990,-0.8405036,-0.8553875,-0.2528998,-0.2398967,-0.7613915,0.9020733,-0.5949627,-0.8361718,0.9947588,-0.9114651,-0.9130920,-1.0643431,-0.0588225,-0.0304449,0.6558662,-0.8829491,-0.2110205,0.4115342,0.6283244
-0.1517946,-1.0917298,-1.3465105,-1.0948333,-0.2176917,-0.5653642,-1.2173312,0.7952437,-0.9630061,-0.7612968,0.9917873,-0.1235752,-0.9094723,-0.9960703,-0.4032381,-0.2431488,0.4175809,-0.9498838,0.2279795,0.1390770,0.5958588
0.0868453,-1.4384693,-1.4842516,-1.5435164,-0.9287213,-0.7216027,-1.1056974,0.6799600,-1.1136695,-1.0532057,0.9267935,-0.8150939,-0.9586092,-1.0899857,-0.1947931,-0.4562809,-0.3182404,-0.7589159,-0.1271463,-0.2920453,0.4647198
0.5728995,-0.9890050,-0.2881037,-1.8633275,-0.7282447,-0.6135222,-1.2289524,0.7894586,-0.2732016,-1.4188865,0.9516073,-1.7104145,-1.4059622,-1.0465302,-0.4503228,-0.7368427,-0.3530546,-1.2165223,-0.1976377,-0.7694693,0.2245273
0.4175704,-1.4812472,-0.5583377,-1.2842093,-0.5921566,-1.2557139,-1.5231735,0.7742207,-0.2147239,-1.4490688,0.8396878,-1.6344405,-1.5146756,-1.5652355,-0.5385478,-1.4244534,-1.1069078,-1.6458472,-0.4648973,-1.5139180,-0.4119056
0.1479432,-1.4062607,-1.2704325,-1.6424906,0.0112758,-1.6989664,-1.2583985,0.3887196,-1.4627525,-2.2350008,0.7548394,-1.5179473,-1.9869487,-1.7573006,-0.7137442,-1.7889820,-1.3655322,-1.6793660,-0.7202681,-1.8557680,-0.7649390
0.5278693,-0.2171484,-0.0619313,-1.2991829,0.0609267,-1.1347009,-0.4652572,0.3878432,-1.2347598,-2.5678647,0.5989591,-2.2479875,-1.6138209,-1.6197194,0.0333810,-1.6685933,-0.9226077,-1.1818854,-0.7282792,-2.1028111,-0.9824262
0.9744874,-0.1748918,0.9887573,-1.1403742,0.3098347,-0.9828504,-0.5698511,0.5545033,-1.1001045,-2.2715640,0.5530315,-1.8590311,-1.1255239,-1.1806120,-0.1802568,-1.4199903,-0.9789541,-0.8620420,-1.0334350,-1.9335607,-0.3341036
0.4807262,-0.4423750,0.2592470,-0.8327590,-0.3974375,-0.8660744,-0.2109434,0.4172493,-1.0343804,-1.9898669,0.6233829,-0.8236636,-1.0964627,-0.5392616,0.2172930,-1.3465844,-0.3479013,-0.7157911,-0.7123749,-1.3958975,0.0377048
1.4684834,0.0372423,1.0462369,0.0271015,-0.0348261,-0.5253202,0.5607250,0.6777576,-0.3539883,-1.8148919,0.7323316,-1.1941552,-0.6773648,-0.3388268,0.0723524,-1.2695013,-0.3524140,-0.4453883,-0.3503408,-1.5888823,-0.3632059
1.3613076,-0.2949376,1.1120163,-0.5341977,0.2379325,-0.6240723,0.0754579,1.1186953,-0.3240870,-1.2226629,0.7369899,-1.5116390,-0.7846990,-0.2167774,-0.1298443,-1.1108158,-1.2290820,-1.0518965,-0.8014411,-2.0733354,-1.0626620
1.0313089,-0.6874083,0.3593632,-0.5790814,0.2684230,-0.6838471,-0.8199196,0.8685476,-0.6840688,-2.2006495,0.7839987,-0.9117693,-1.5415213,-0.7887531,-0.5196087,-1.7805328,-1.3454772,-1.7024403,-1.4273952,-2.4953752,-1.3900341
1.1020948,-0.7908615,0.4421018,-1.2157815,0.2849700,-0.6195267,-0.6873543,0.6732720,-1.1564065,-2.5792344,0.5932617,-1.8716878,-1.6741214,-1.1732649,-1.0788422,-1.6589099,-1.5291228,-1.6434768,-1.2525986,-2.7103884,-1.2183559
1.2726536,-0.4726427,0.1950797,-1.6001452,-0.2886929,-0.7162474,-0.9263332,0.4575548,-1.2657672,-2.4918537,0.6131141,-2.5440805,-1.5535022,-1.3703698,-1.0596764,-1.7579483,-1.3547006,-1.6593428,-0.9594484,-2.3230982,-1.1971211
1.4322412,0.2936933,0.4112257,-0.7949440,0.4173578,-0.6076015,-1.2215190,0.3560711,-0.5793158,-1.9942306,0.6555455,-1.8070165,-1.7603093,-1.2851434,-0.0501019,-1.4630101,-0.9953237,-1.7040507,-0.5961303,-1.8810129,-0.4149592
1.6827186,0.4490047,0.7091978,-0.5930713,0.2868118,-0.6010046,-0.6036848,0.6858107,-0.0596555,-1.4369549,0.6407329,-1.2119385,-1.4343531,-0.9342764,0.4474332,-0.5477868,-0.4568893,-1.3616488,-0.3512113,-1.1501416,0.0286358
1.5966909,0.1236259,0.4730774,-0.4821544,-0.0284967,-0.4682381,-0.2133199,0.8647435,0.5289605,-1.3958573,0.7838970,-1.8355813,-0.6775559,-0.7413680,0.9921557,-0.5072668,-0.1093116,-1.1337112,-0.0314830,-0.6018504,0.2773753
1.2834377,-0.2337767,0.7577142,-0.4685615,0.4686189,-0.7162080,-0.3855483,1.0613461,0.1246641,-0.9357791,0.8302689,-1.3348944,-0.5690578,-0.7657863,1.2840277,-0.0260145,0.1027061,-0.9249310,0.0295691,-0.1417434,0.0932180
0.9404305,-0.7807524,0.1512285,-0.6908133,0.3411231,-1.3885183,-0.6328862,1.1072392,0.1020451,-1.3804573,0.8683050,-0.5553324,-0.8480608,-1.1064675,0.7986884,-0.0028056,-0.1311240,-0.7697433,0.1773342,-0.3348364,-0.0414135
0.7511045,-0.7601314,-0.3533491,-1.0824552,0.6170217,-0.6943229,-0.8100456,1.1322454,-0.2670177,-1.2049459,0.8623909,-0.6039824,-0.9387607,-1.3003856,-0.0568708,-0.1765204,-0.4229747,-1.2813766,-0.2148331,-0.5562084,-0.6663365
0.4568860,-0.7278906,-0.2787080,-1.1804055,0.3086368,-0.9257464,-1.1352988,0.6467016,-0.8592355,-1.1111633,0.8547208,-1.0686966,-1.4194423,-1.3097388,-0.6582736,-0.8331045,-1.2009224,-1.6837198,-0.4706534,-1.5623018,-1.6049854
-0.1304927,-0.8083214,-0.5807369,-1.0940040,0.1403377,-1.1916783,-0.9393870,0.3655955,-0.9877917,-1.9252888,0.7211925,-1.0953476,-1.4030159,-1.8374172,-1.2171736,-1.4824846,-1.3503985,-1.8795751,-0.4039545,-1.9704286,-1.3699027
0.6719896,-0.6917466,-0.4765855,-0.9852711,0.2602756,-1.0083046,-0.9215631,0.7946060,-0.5306912,-2.0267332,0.7885716,-1.5551932,-1.3750745,-1.6122490,-0.0769487,-1.4483076,-1.1596110,-1.7969171,-0.3707896,-1.3638972,-1.2057061
1.2498473,-0.3913108,-0.4315820,-0.4753540,0.5983262,-0.7994314,-0.9195644,1.0808244,-0.1980432,-0.8775699,0.8270249,-1.5693395,-1.3716536,-1.3971797,-0.1388928,-0.7466974,-1.0704842,-1.4835021,-0.2826641,-1.2226088,-1.3390615
1.2037476,-0.1374632,-0.2694225,-0.7907432,0.4907373,-1.2306281,-0.6476189,0.8132587,-0.1845101,-0.8843689,0.7703844,-1.0666655,-1.3242100,-1.2511764,-0.1814158,-0.3536542,-1.1038580,-1.3982272,-0.4371516,-1.3619235,-0.7158384
0.9452463,-0.7101161,0.0568578,-0.3179193,0.3629060,-1.1664864,-0.3128348,0.9405917,-0.2215709,-0.8552898,0.7929142,-0.9875876,-1.0428139,-1.0499560,0.5732024,-0.7022976,-0.6178977,-1.1782699,-0.4795367,-0.9813743,-0.6770403
0.5318483,-0.7876334,0.1584773,-0.1180601,0.2820933,-1.1299706,-0.5605862,1.1681840,-0.1297081,-1.0688250,0.9038056,-1.2183775,-0.5894763,-1.0776188,-0.0040990,-0.3989130,-0.3879961,-1.0539285,-0.3693581,-0.7519030,-0.6867895
0.7687986,-0.4178181,0.1456924,-0.7786693,0.6109425,-0.8904696,-0.4511777,0.9724038,-0.0707541,-0.6510966,0.9104067,-0.8358914,-0.6114812,-0.9461204,-0.3888273,-0.9962273,-0.2767621,-0.8405546,-0.9061206,-0.7069612,-1.0315834
0.6373938,-1.0624633,0.6265652,-1.1826606,0.0267814,-0.9419361,-0.1516091,0.7392020,-0.3200508,-0.9673465,0.8041953,-0.6177722,-0.7958261,-1.0985349,-0.9812260,-1.3288436,-0.3663956,-0.9803671,-0.9874927,-0.8162230,-0.6902740
0.4809244,-0.7063966,0.1409596,-1.1306075,-0.0595137,-0.7676347,-0.4040348,0.6796424,-0.8547181,-1.8719581,0.8152692,-1.4125681,-1.0261148,-1.3421779,-1.4641014,-1.1295787,-0.7391163,-1.1958534,-1.0982528,-1.5335959,-0.8912868
0.0365501,-1.0433683,-0.3215487,-1.3513911,-0.1043946,-0.8006132,-0.6162345,0.5529352,-1.1626760,-1.2445831,0.7451959,-1.3312423,-1.3349669,-1.4129786,-0.9463209,-0.6943881,-0.9647572,-1.2047241,-1.2363489,-1.5195525,-1.0368211
-0.0164958,-1.4594935,-0.0855688,-1.4828892,-0.5825381,-1.0963435,-0.7365429,0.3482694,-0.9064263,-1.0300611,0.7233843,-1.1367183,-1.4191291,-1.5471888,-1.0289645,-1.2084919,-0.8900263,-1.3101234,-0.9774174,-1.8350043,-0.7611267
0.3281398,-1.3551477,-1.0317695,-1.0259112,-0.7996817,-0.7855110,-0.7259104,0.4988450,-0.4330732,-1.4455421,0.7546449,-1.9084270,-1.3218513,-1.3287545,-0.7458982,-1.4870031,-0.7963201,-1.3427181,-0.8263312,-2.0427806,-0.8637414
-0.3213243,-1.2304115,-1.5218335,-2.0781567,0.0693381,-0.8349115,-0.6916330,0.7957549,-0.7389463,-2.0871632,0.7948913,-2.5714996,-1.6167895,-1.4822556,-0.6061658,-1.0178319,-0.6470463,-1.1936475,-0.5136465,-1.2139570,-0.9966405
0.0438694,-0.9945859,-1.0249017,-1.8021483,0.1282786,-0.9061502,-0.6436747,0.8127055,-0.4885752,-2.0981827,0.7049398,-1.4076834,-1.4094311,-1.1714979,-0.5786162,-0.8965878,-0.7350528,-1.3117868,-0.5359862,-1.2539259,-1.1135714
0.0971295,-1.2392117,-0.4487465,-1.1297178,-0.2249458,-0.5326944,-0.4655936,0.4683597,-0.5422198,-1.4513278,0.8060700,-0.8286427,-0.9106265,-0.9058844,-0.8238450,-0.6768438,-0.8817101,-1.0990827,-0.6695366,-1.7746322,-0.4225029
0.2726341,-1.1132494,0.0121383,-1.6314105,0.6659934,-0.1906699,-0.2653025,0.4843745,-0.8299160,-1.6054609,0.7724203,-1.4503107,-0.7768004,-1.1013336,-0.5033581,-1.4935794,-0.8281712,-1.3113524,-0.5435655,-1.5012225,-0.5371052
-0.1446109,-0.5084038,-0.0135749,-1.9277048,-0.2502587,-0.2663465,-0.9034343,0.2319896,-0.8591893,-2.0962396,0.7513713,-0.8625233,-0.6182115,-1.2246174,-0.8629609,-1.3897970,-0.8862844,-1.8091631,-0.8583848,-1.9360675,-0.9070738
-0.5040032,-0.6706095,-0.8491001,-2.2100391,-1.1513594,-1.1947973,-1.8498421,0.0533068,-1.4205277,-1.7313806,0.7291079,-0.4674212,-1.0766774,-1.6081715,-1.4781741,-1.3279492,-0.7462776,-1.6407205,-1.2033840,-2.0900605,-1.4251204
-0.6034673,-0.7922459,-1.1541359,-1.9475858,-0.7674198,-0.8779737,-1.6368527,0.2076653,-1.5190955,-2.1310911,0.9103976,-1.1723449,-1.3642722,-1.8319767,-1.5913730,-0.9050184,-0.7002062,-1.7007666,-1.5536063,-1.9326750,-1.8114959
-0.7202491,-1.2582759,-0.6032237,-2.0264258,-0.0191038,-0.7164155,-1.9331337,0.5665284,-0.8341988,-1.4070528,1.0310743,-1.0605263,-1.4964465,-2.0750499,-2.1484349,-0.9880682,-1.1845733,-1.9282147,-1.5028058,-2.3259442,-1.8308558
-0.6710118,-0.8603573,-0.5246437,-2.3459296,0.0997286,-1.2200722,-1.7610835,0.2932274,-1.0452689,-1.5919840,0.9959536,-0.6943048,-1.5218904,-1.6401180,-1.7097582,-1.1928753,-1.3023686,-1.8742853,-1.6809734,-2.6519432,-1.6927930
-0.1874749,-0.7990925,-0.5814372,-2.1727800,0.0958462,-1.0545841,-1.3235960,0.2538807,-1.0878228,-1.7140568,0.8384278,-1.1707995,-1.1631072,-1.5141796,-1.7615880,-1.5176405,-1.2641484,-2.1358097,-1.5854965,-2.4314649,-1.7741780
-0.4005046,-0.5600049,-1.2870690,-1.8633298,0.5235769,-1.2187543,-1.2246329,0.2025447,-1.3727293,-2.0691929,0.8029990,-1.9072332,-1.7375538,-1.6927887,-1.9330389,-1.3462142,-1.5869361,-2.0628366,-1.5864702,-2.5481679,-1.8056743
-0.2656824,-0.7467439,-0.3678927,-2.0011756,0.2952253,-1.0453217,-0.9085975,0.1272719,-1.0491329,-1.9509825,0.7988348,-1.3707639,-1.4238600,-1.3859371,-1.5351534,-1.2398709,-1.5261215,-1.5704122,-1.5675405,-2.1081717,-1.2608387
-0.5314096,-1.4480588,-0.3534015,-1.7954683,-0.4211736,-0.8299136,-0.5434132,0.2192762,-1.3924830,-1.3510965,0.8323756,-0.6255795,-0.8709208,-1.1917961,-1.6505415,-0.9754074,-0.4286645,-1.3775541,-1.3181350,-1.4531355,-0.9034678
-0.5220298,-1.7728125,-0.6158755,-1.8437614,-0.0208128,-1.0270654,-0.4082676,0.2670470,-1.2161908,-0.9536476,0.9630511,-1.1130131,-0.6901938,-1.0924860,-1.1627332,-0.8010065,-0.4154918,-1.3014684,-0.8091057,-1.6578320,-1.0066909
-0.5425628,-1.6332012,-0.3685873,-2.4671502,0.1385217,-0.9710103,-0.7409495,0.0824416,-1.3275143,-0.4644760,1.0389965,-1.2101644,-0.6160597,-0.9612463,-1.4421873,-1.0445249,-0.6134452,-1.6502765,-1.1944206,-1.5261706,-1.1529347
-0.1631982,-1.8067379,-0.7424843,-2.3391159,-0.5562921,-1.0822797,-0.8554057,-0.1132843,-1.4269333,-1.1078669,1.0243666,-0.4317491,-0.9317697,-1.1246195,-1.7966154,-1.0987606,-1.1296928,-1.6795430,-1.4161655,-1.8328593,-1.6009725
0.1000159,-1.5715047,-0.6580555,-1.5579840,-0.5769345,-1.1638381,-0.8952976,0.3074505,-0.8818693,-0.7136263,0.9142712,-1.0616946,-1.0807811,-1.3741524,-1.2008266,-0.9871698,-0.9767607,-1.6101047,-1.0669137,-2.1881125,-1.3151518
-0.0430906,-0.9241379,-0.0695178,-1.0838438,-0.2368087,-0.9965693,-0.9358496,0.5133379,0.0080611,-0.5840988,0.8850099,-0.9748009,-1.1585542,-1.3770181,-0.6809284,-0.7729766,-0.6160697,-1.1967193,-0.3718638,-1.6625954,-0.7460948
-0.1482905,-1.3973637,0.0248435,-1.4509695,-0.8852345,-0.4789401,-0.8775156,0.6054044,-0.1233489,-0.1956328,0.8333961,-0.8944448,-1.0626317,-1.2420269,-0.1381452,-0.5896314,-0.7210757,-0.9724407,-0.2323495,-0.9909638,-0.3477110
-0.3188291,-1.6389947,-0.5332009,-1.5053518,-1.3799348,-0.3436356,-0.8374845,0.3328393,-0.9778196,0.0045735,0.7961489,-1.0735101,-0.3526996,-1.1466758,-0.3695492,-0.9614202,-0.3297855,-0.7711205,-0.1323389,-1.1180277,-0.5129187
-0.2744885,-1.2317133,-0.2588255,-1.5645996,-0.2568391,-1.0160973,-0.7701387,0.2755072,-0.7456174,-0.3285479,1.0036726,-1.2073607,-0.3219458,-0.9189831,-0.2501594,-0.1590145,0.0196283,-0.5283628,-0.1943127,-0.8144642,-0.4952437
-0.6441131,-1.3653541,-0.7097506,-1.7912740,-0.1745070,-1.4404658,-1.2603796,0.3661647,-0.1717723,0.1933222,1.1105658,0.0139429,-1.0479364,-0.7972129,0.1272029,-0.0195009,-0.1080618,-0.8820136,-0.0835356,-0.2901409,-0.4401838
-0.5756285,-1.9308394,-1.3591573,-1.9225473,-0.9302304,-1.1465442,-1.3762817,0.4227376,0.0580149,0.0601781,0.9978672,-0.5776176,-1.4682404,-1.2395710,0.3406914,-0.2050977,-0.1315847,-1.2380399,-0.0634217,-0.6848370,-0.5430491
-0.5995561,-1.5933696,-1.2451837,-1.3919117,-0.0602371,-1.2779969,-1.2792436,0.4477313,0.0849683,0.1702425,1.0886018,-0.8689523,-1.6387675,-1.5674587,0.5182442,-0.1337782,-0.3616804,-1.5468806,0.4855391,-0.6981026,-0.0915310
-0.5447668,-1.6609389,-1.6812823,-1.0978023,-0.5048537,-1.5393846,-1.3050905,0.4678628,0.3182733,-0.0471214,0.9727600,-0.3818449,-1.2938906,-1.6927555,0.2306147,-0.4795539,-0.8514792,-1.4973698,0.4373411,-0.6682231,-0.4963927
-0.2280775,-1.3448930,-0.9393759,-1.6816181,-0.4891909,-1.5359997,-1.1357137,0.7874040,-0.0045780,-0.0624315,0.9818501,-0.1556187,-1.3337331,-1.3554767,0.7251989,-0.2120782,-0.4654540,-1.1823231,0.5129999,-0.4400778,-0.2221085
-0.6721284,-1.2613540,-1.0949311,-2.2399881,-0.0298921,-0.9433674,-0.8988218,1.0538990,0.3260039,-0.2655855,0.9572092,-0.9993234,-1.1161082,-1.3762097,0.5954042,0.2165851,-0.7188513,-1.0020318,0.4234861,-0.3417477,-0.2314787
-0.6709054,-1.4753786,-0.9853436,-2.1452670,-0.0749549,-0.9961451,-1.2289600,0.5728544,-0.0728174,-0.7146137,0.8068811,-1.1916207,-0.8575886,-1.3626437,0.7872096,-0.1586212,-0.7727946,-0.9750075,0.0259518,-0.7798505,-0.1346933
-0.7734738,-1.9090300,-0.2097517,-1.8886952,-0.5506240,-0.8147786,-0.9225194,0.2572172,-0.6424779,-0.5391103,0.8450671,-0.5742342,-1.0930711,-1.1767565,0.3334579,-0.7827884,-0.6095139,-0.8611496,-0.0152682,-0.4198784,-0.0648095
-0.5961840,-1.8206571,-0.0407821,-1.8103046,-0.7080995,-0.8167816,-0.8466225,0.2515299,-1.0500911,-1.0417405,0.9716859,-1.0520087,-1.1034051,-0.9245399,-0.0334704,-0.9215668,-0.5058169,-1.0798868,0.0422707,-0.6375475,-0.2897834
-0.2011336,-1.0920304,-0.3239453,-1.7315853,-0.7985730,-0.8783286,-0.5635521,0.3454103,-0.9965090,-1.3303267,0.8408907,-1.4067048,-1.1544292,-1.0116844,-0.0922508,-0.3917398,-0.3850217,-1.3747773,-0.0044016,-0.8786685,-0.6794667
-0.0487073,-0.9636416,0.5285567,-1.6214365,-0.8474649,-0.7684543,0.0733097,0.3623838,-0.7291673,-0.9711841,0.7992173,-0.7996817,-0.9298753,-0.7067936,-0.2840705,-0.7656563,-0.4417997,-0.8768247,-0.3255704,-1.0236148,-0.6389643
-0.4542247,-1.1278456,0.6157734,-1.2564501,-0.6622416,-0.7350852,0.4634790,0.2363973,-0.8714938,-1.3219609,0.7299730,-0.8635525,-0.6519374,-0.4582814,-0.1653786,-1.3846865,-0.3544499,-0.8497604,-0.3096526,-1.4010918,-0.5597433
-0.0049465,-0.7112584,1.3701030,-0.3850510,-0.4300894,-0.5014078,0.8915040,0.5446530,-0.5371385,-0.8021274,0.8225179,-1.2550861,-0.2201347,-0.3048621,0.4030906,-0.7898279,0.0090194,-0.5470848,-0.1515999,-0.5754704,-0.0466024
-0.5495210,-0.4976101,1.0737772,-0.1906981,0.1442626,-0.0849556,1.0976850,0.9276153,-0.0277073,-0.7735547,0.8033744,-0.7686313,-0.0385113,0.1801154,0.7397087,-0.2682016,-0.2921432,-0.2596995,-0.0733170,0.1411607,0.2638793
0.1494583,-0.4698680,1.0213498,-0.1624688,-0.4518114,-0.5210612,0.9953297,0.8948963,0.0594769,-0.7127298,0.7259801,-0.2759030,0.1557323,0.0256670,0.3869171,-0.3535572,-0.5081611,-0.1579086,-0.0988516,-0.0650351,0.3943719
0.4618246,-0.7792938,0.6604263,-0.2463905,-0.6821564,-0.1513624,0.5610241,0.9056298,-0.1398770,-0.7614641,0.8870779,-1.0597581,-0.1545594,0.0791427,0.6390089,-0.1839736,-0.5731683,0.0485307,-0.2319558,-0.5832718,0.1061604
-0.0882268,-0.5440777,0.2513330,-0.7360187,-0.9515056,-0.1963115,0.2773164,0.7049788,-0.2671436,-1.1168315,1.0308120,-1.4565717,-0.5073203,-0.4241502,0.2687042,-0.2015916,-0.8640491,-0.3533269,-0.0076438,-0.5182133,-0.6368946
-0.9689192,-1.1964421,-0.3499144,-1.2779033,-0.7670954,-0.6941175,-0.3091350,0.5105064,-0.5429100,-1.2185156,0.9495048,-0.9870598,-1.0749288,-0.5909091,-0.2223577,-1.1823946,-1.2024362,-1.0521735,-0.2962356,-1.0700779,-1.0304155
-0.8497452,-1.1408331,-0.0111990,-1.1933973,-1.4715357,-0.8578510,-0.3214191,0.3161155,-0.7691162,-1.8099554,0.5822028,-1.3353848,-1.4403778,-1.2884376,-0.0680369,-1.4038306,-0.9963987,-0.8537608,-0.4404467,-1.1238484,-0.9753402
-0.4550205,-0.7067346,0.8548982,-0.8710163,-0.2450517,-0.2463664,-0.5050611,0.3103334,-0.8448182,-1.4620723,0.7855169,-1.6551809,-0.7990463,-1.0797729,0.3328570,-0.9587040,-0.5442429,-0.7901589,-0.1603269,-1.0512558,-0.9521656
-0.3972485,-0.8445244,0.0844843,-0.9485785,-0.6693832,-0.6029519,-0.6834928,0.4213294,-0.5105085,-1.4290959,0.7732186,-0.7042394,-0.8642746,-0.9349896,0.4874877,-0.4246623,0.0543809,-0.7180303,-0.1927073,-0.8626839,-0.6824260
-0.1105296,-0.7840580,-0.2494362,-0.6211792,-0.9297312,-0.4913726,-0.5958915,0.6495007,-0.0234162,-1.2914642,0.6929208,-0.8684232,-0.8834784,-0.5813897,-0.1606711,-0.6991541,-0.5927715,-0.6399350,-0.4125583,-0.7318034,-0.5193616
-0.4556582,-0.7950814,-0.7456211,-0.1931869,-0.1563769,-0.3561590,-0.6150410,0.7738582,0.1736746,-1.0908260,0.8193730,-1.3810451,-0.8272521,-0.9613190,0.4321943,-1.0056818,-0.6086584,-0.3345643,-0.4009658,-0.8727313,-0.6305711
-0.2704063,-1.2081988,-0.6568961,-1.0078683,0.2121684,-0.6101724,-1.0043613,0.6247748,-0.0265765,-0.5652741,0.7209064,-0.4602530,-0.9173453,-0.9584366,-0.2841650,-0.5583919,-0.7824070,-0.7064334,-0.6297807,-0.8123196,-0.7671434
-0.3109770,-1.0785246,-0.3517793,-1.2784203,-0.1395853,-1.0316141,-0.7396852,0.3264514,-0.5803142,-0.4981052,0.6161906,-0.4249817,-1.2735709,-0.8318269,-0.1788869,-1.2939696,-1.0570811,-0.9310597,-0.8406195,-0.7496428,-0.7347738
-0.3313734,-0.6934325,0.2103674,-0.9309310,-0.1275235,-0.6057107,-0.7261205,0.3173425,-0.6292941,-0.6137620,0.7511392,-1.1715206,-1.1768979,-0.6842082,-0.2800308,-0.6910889,-0.6016951,-0.8869722,-0.8102428,-0.9531090,-0.6128961
0.0284736,-0.7896718,0.2125792,-0.6751758,-0.0798100,-0.5287812,-0.5736749,0.3322923,-0.3189970,-0.1164332,0.8018516,-1.4040718,-0.8059753,-0.9219683,0.2097396,-0.4186535,-0.6854739,-1.1004448,-0.6853891,-1.3042954,-0.6162171
-0.0189369,-0.8173847,0.1873387,-0.6399781,-0.4186903,-0.7796496,-0.5814275,0.3460844,-0.4120138,-0.5315701,0.9357364,-0.1191074,-0.8852181,-0.8579013,0.1781198,0.0412518,-0.8571859,-0.8284040,-0.3886725,-0.8107232,-0.3333149
-0.0551686,-0.7329928,-0.2062281,-0.5591073,-0.1861926,-0.8331554,-0.4237365,0.6377687,-0.2183801,-0.7876979,1.0968627,-0.5053825,-0.7534517,-0.3109941,0.5193395,-0.0405777,-0.1891197,-0.2516175,-0.0407277,-0.6388767,0.0567332
-0.0416085,-0.3879944,-0.1380791,-0.4446611,-0.1411580,-0.5976594,-0.4352057,0.6755285,0.1513306,-0.0934135,1.1705660,-0.5222762,-0.5087165,-0.2335612,0.5087388,0.1810734,-0.0786224,-0.2885398,-0.0982744,-0.5741081,0.0264672
-0.4142152,-1.2583172,0.3306632,-0.9446601,-0.9468274,-1.2100857,-0.7937328,0.4172803,-0.3248700,-0.2953834,1.0874635,0.3836646,-0.3667944,-0.4242460,0.0668449,-0.2305623,-0.2263130,-0.3357065,-0.6032993,-0.8015486,-0.1558203
-0.6757708,-1.1606989,-0.1515694,-1.2966717,-1.2151765,-1.2640740,-0.5299648,0.1671421,-0.3120055,-0.7267156,1.0904727,0.0181131,-0.7983088,-1.0348426,-0.2223237,-1.0349014,-0.3220015,-0.7531745,-0.7188580,-0.9141927,-0.5098780
-0.6653501,-0.4667885,0.1280161,-1.5135981,-1.3266222,-0.7965329,-0.7722821,0.3732234,-0.7458473,-0.0440952,1.0919086,-0.5499188,-0.7904294,-1.0084617,-0.5797213,-1.0540618,-0.2486198,-1.0542430,-0.9713980,-1.1453208,-0.9295390
-0.9701229,-0.5642406,0.3500963,-1.6943024,-1.4216181,-0.6954984,-0.5786851,0.2009098,-1.1850497,-0.5851538,1.0173160,-0.4631143,-0.7957476,-0.6986091,-0.9407628,-0.9996515,-0.5966129,-0.9262601,-0.9963108,-1.5676200,-0.8476880
-0.8770700,-1.2040285,0.2501775,-1.2054743,-1.7964005,-0.9057778,-0.1413802,0.0831766,-1.4634464,-1.5289472,0.9237316,-0.2630298,-0.3576590,-0.7530345,-0.3278991,-1.0698764,-0.6263095,-0.6323541,-0.7605575,-1.8809632,-0.6254672
-0.7779078,-1.4542679,-0.2254524,-0.6118097,-0.9378226,-0.6876760,-0.0240089,0.3174706,-0.7598869,-1.5164284,1.0478123,-1.5296290,-0.2993214,-0.3718686,0.2039530,-0.8990284,-0.5936134,-0.5075896,-0.7241273,-1.4947551,-0.6219590
-0.5083230,-0.7160271,-0.0471728,-0.2265329,-0.9540290,-0.4720874,0.1990764,0.6697134,-0.6080481,-1.0469853,0.8782206,-1.7501237,-0.5850002,-0.3211362,-0.1249306,-0.6064067,-0.6338217,-0.5969325,-0.7028551,-1.1783451,-1.2133040
-0.3514002,-1.1063409,0.0261873,-0.4702556,-1.4834907,-1.0081180,-0.2133446,0.4465896,-0.4108900,-1.1281036,0.7359439,-0.6604550,-0.8699741,-0.4860391,-0.9990476,-0.7316893,-1.4496959,-0.9526247,-0.8632047,-1.5377477,-1.4713345
-0.5944663,-1.5281476,-0.1044733,-1.2684785,-1.5090094,-1.0077803,-0.6316018,0.4345591,-0.9724990,-1.5515790,0.8243445,-1.2067081,-1.0760953,-0.5802772,-1.6051327,-1.5516644,-1.4224106,-1.5978026,-1.6153480,-2.5159333,-2.1546707
-1.0985283,-1.7551581,-0.5181075,-1.6312219,-1.7022479,-0.9025184,-0.9150952,0.3855729,-0.9038011,-1.3340248,0.7903839,-1.8238974,-1.0213759,-0.7593356,-1.3267717,-2.1319966,-1.6756901,-1.7025278,-1.7608354,-2.8275666,-2.2075632
-0.9687925,-1.7156624,-0.6863853,-1.6018298,-1.7648079,-0.6947968,-0.8376247,0.1419763,-1.3305258,-0.9730061,0.6750246,-1.0409493,-1.5213213,-1.1108744,-1.1031677,-2.0553365,-1.5709684,-1.5713072,-1.8877550,-2.7787180,-2.3580060
-0.6513179,-1.1413970,-0.8127818,-1.5024611,-1.3588568,-0.6950955,-0.8363690,0.0629201,-1.7515910,-1.2693232,0.7772005,-1.0686145,-1.6773516,-1.1583281,-0.8865060,-1.9776846,-1.3939246,-1.2881610,-1.6484654,-2.3152821,-2.0932128
0.0680085,-0.5828772,0.0172993,-0.8316827,-0.9678192,-1.3492895,-0.5421090,0.3997700,-0.7448990,-0.9274911,0.8286464,-1.3845593,-1.1780312,-1.0164975,-0.6436245,-1.4523914,-0.8266838,-0.9235901,-1.2307677,-1.7438594,-1.5172341
-0.5186391,-0.9861577,0.6154475,-0.3599390,-1.0470285,-1.2769922,-0.5454819,0.3497927,-0.6485400,-0.4334709,0.8592274,-0.7741036,-0.6469862,-0.8362707,-0.8251493,-1.1481937,-1.1253128,-0.9539661,-1.1893903,-0.9610690,-1.0125170
-0.2718305,-1.3350450,0.2294321,-0.6729053,-1.2455934,-1.5157768,-0.4488446,0.3752064,-1.1065878,-0.6134108,0.8290243,-0.4480916,-0.8319448,-0.3952763,-0.8094741,-1.4064262,-0.9093351,-0.8988327,-0.9646308,-1.2881316,-0.7753180
-0.1747529,-1.2383837,-0.0967549,-0.6685014,-1.0662434,-1.1880206,-0.7994050,0.5176030,-0.6355930,-1.1171176,0.8792476,-0.8060266,-1.0765616,-0.5467814,-0.5729234,-1.4954022,-0.5224518,-1.1484995,-0.9280158,-1.5679014,-0.8612085
-0.1216989,-1.0322490,0.1245188,-1.1483995,-0.8776468,-0.9789686,-0.7150440,0.4243822,-0.6817722,-1.1537439,0.9541203,-1.3741022,-0.6652206,-0.5193848,-0.4481455,-1.5011690,-0.9227419,-1.0118896,-1.3796420,-1.9639113,-0.9313315
-0.4309288,-1.1507429,0.8891304,-1.2430673,-0.5673492,-0.9908410,-0.1575023,0.1839749,-1.0079727,-0.7575361,0.7980280,-0.4871885,-0.6406033,-0.5860087,-0.4281832,-1.6950060,-1.1314763,-0.9844956,-1.0608170,-1.8651860,-0.6198420
-1.1703804,-1.6030352,-0.2647943,-1.1735853,-1.1536936,-0.9153080,-0.3192892,0.2046310,-0.9849756,-1.3961492,0.7148291,-0.7761099,-0.9064454,-0.7714163,-1.0982213,-1.7126905,-0.8703212,-1.1367712,-1.0678502,-1.7329601,-0.9511506
-0.8751438,-0.8974220,0.2610491,-0.8451368,-0.4376551,-0.5492745,-0.7944150,0.4626474,-0.6187644,-1.1227179,0.8588635,-1.7708545,-0.7935445,-0.8106775,-0.3967698,-1.1421114,-0.5151892,-1.1066566,-1.0050777,-1.7380505,-1.0518227
-0.7297616,-0.9207114,-0.3055434,-0.9229584,-0.2261496,-1.0687505,-0.9045110,0.6757653,-0.0630180,-0.7781151,0.7327058,-1.3939680,-0.9472412,-0.3750636,0.4579867,-0.6935904,-1.0803305,-0.9517828,-1.0536784,-1.4022708,-0.7089924
-0.6180038,-1.0277982,-0.1127247,-0.4918402,-0.9118975,-1.2054017,-0.7847822,0.5240476,-0.5002473,-0.5592175,0.8337733,-1.2743813,-0.9624844,-0.7463090,0.1167537,-1.0106000,-1.1857064,-1.3107066,-0.8490555,-1.0648263,-0.8837174
-0.6742913,-1.0994229,0.0106179,-0.6664324,-1.5566043,-0.5569324,-0.9567949,0.4769076,-0.6776494,-1.1988343,0.7713529,-1.7875675,-0.3738161,-1.0124574,-0.1732683,-1.3738133,-0.8731506,-1.4430507,-0.7143148,-1.1291261,-0.9526238
-0.9053472,-1.0785755,0.0819144,-1.1423200,-0.8457114,-0.9300091,-0.5465639,0.3795935,-0.4098725,-1.0050330,0.7578929,-1.2558727,-0.6754698,-0.8506175,-0.2472990,-1.7658997,-1.4372598,-1.1203692,-0.9970473,-1.2883046,-0.8890480
-0.6291233,-1.0423417,0.5591554,-0.8985195,-0.6240152,-1.0130690,-1.2122371,0.1615785,-0.9116251,-0.3214881,0.7512810,-1.1233056,-0.4386191,-0.6645301,-0.4554209,-1.5865592,-1.6462995,-1.3738441,-1.0978720,-1.8451076,-1.0094854
-0.6425853,-0.8634191,-0.1039489,-0.6042728,-1.2585725,-1.1732366,-1.0668346,0.3782225,-1.0431958,-0.4578365,0.7955890,-2.2317054,-0.7801822,-0.7801019,0.0922879,-1.3233663,-1.5799111,-1.5749286,-1.0327308,-1.9094508,-1.3429513
-0.5838781,-0.8568677,-0.1941139,-0.4945343,-1.1774755,-1.0917386,-1.1826230,0.3880167,-0.9849368,-0.6964455,0.9262083,-1.8355277,-0.9482332,-1.0710968,-0.6002429,-1.2797520,-1.2682312,-1.7283074,-1.3471390,-1.7115122,-0.9331660
-0.7329678,-1.4940277,-0.4317261,-0.5262341,-0.3936940,-1.1018529,-1.1350846,0.3981918,-0.6299121,-0.5419509,0.9108796,-1.2711644,-0.8915528,-1.2016295,-0.1416423,-1.9725087,-1.2739722,-1.5599720,-1.2273209,-1.2960466,-0.8688443
-0.5990701,-1.3326949,-0.4469705,-0.6501022,-1.1108420,-0.9175655,-1.1490234,0.7229102,-0.2123845,-0.6359160,0.8540538,-1.5521036,-1.1434017,-1.4596034,-0.1276187,-1.5965034,-1.5973253,-1.4420973,-0.9734815,-1.5124453,-0.6502818
-0.6055424,-1.0124485,-0.4187483,-1.5032384,-1.7275447,-0.4525059,-1.1226610,0.5221372,-0.9808685,-0.7196304,0.7500970,-1.4277409,-0.4633340,-1.3621423,-0.5789545,-1.6854337,-1.0703241,-1.0662230,-1.1190679,-1.6000115,-0.5472784
-0.7007865,-0.9505666,0.5071492,-1.8402691,-1.3493445,-0.3928983,-0.6268460,0.2293078,-1.1434990,-0.1177391,0.7760874,-0.7421879,-0.4896901,-0.9357230,-0.4613529,-1.5233660,-1.3896422,-0.9126803,-1.2525200,-1.3336711,-0.0976555
-0.0932924,-0.5887210,1.0673817,-1.3942451,-1.3205841,-0.4560078,-0.2782863,0.3188179,-1.1644045,-0.9503993,0.8019841,-0.2572926,-0.2969320,-0.5279960,-0.3842397,-1.6114994,-1.0141648,-0.8908174,-0.9240851,-1.1696144,-0.4597058
0.1071457,-0.4268526,0.7749360,-1.4431516,-1.2113388,-0.3681284,-0.2874993,0.3783437,-1.1616051,-0.3677805,0.8287125,-0.6400227,-0.1039732,-0.4209104,-0.4643799,-1.0167453,-0.9943736,-0.9372581,-1.0351903,-1.2777367,-0.5851851
-0.2812310,-0.8289683,0.2265528,-1.2504147,-1.1081281,-0.9214733,-0.4874796,0.4054154,-0.8088488,-0.4800410,0.7691073,-0.3638865,-0.3957115,-0.5088353,-0.2370989,-0.8843696,-1.1427205,-0.9568639,-1.0784667,-1.7117292,-0.8754857
-0.4229921,-1.0119784,0.4829009,-1.4399064,-1.4094212,-1.1115493,-0.4178355,0.1932873,-0.9004225,-1.3205301,0.5923245,-0.1177423,-0.6246253,-0.5758371,-0.8557886,-0.9627527,-0.7878058,-0.8738095,-1.0986335,-1.7145919,-0.7946609
-0.8661671,-1.3162472,0.0430948,-1.4575031,-1.3353614,-0.5383669,-0.3999349,0.1803418,-0.9913546,-0.7617227,0.6622921,-0.7684023,-0.6819628,-0.7720029,-0.7301851,-0.3363176,-0.2294336,-0.7613069,-0.9129415,-1.1658853,-0.6950329
-0.8666374,-1.0842636,-0.5396193,-1.1619649,-1.1287743,-0.5247050,-0.2544345,0.4208551,-0.9150033,-0.8771958,0.7743086,-0.6856567,-0.5532972,-0.6321802,-0.2855644,-0.5178290,-0.3084649,-0.8046365,-0.5061642,-0.5613350,-0.7490455
-1.1251292,-1.3804578,0.5939310,-1.2206410,-1.5475483,-0.8034466,-0.4585586,0.2593069,-0.7721500,-1.0339662,0.7392405,-0.0171224,-0.5365531,-0.6056923,-0.1939414,-0.7343414,-0.9145853,-0.5168747,-0.4307123,-0.6127295,-0.4410090
-0.5556363,-0.9592443,0.4591727,-1.3900193,-1.7917731,-0.6542156,-0.5230120,0.1990920,-1.0804107,-1.1788862,0.7430692,-0.2893210,-0.7568904,-0.9801804,-0.0674597,-0.7365024,-0.8296422,-0.9575569,-0.3751269,-0.9926970,-0.4975778
-0.4268102,-0.8401300,0.3948160,-1.1763704,-1.7910402,-0.3792581,-0.5548322,0.2174373,-1.6245100,-0.8436719,0.7778088,-0.2038226,-0.5463158,-0.4771856,-0.0580782,-0.9074902,-0.5950889,-1.2384466,-0.6426201,-0.6624219,-0.6419322
-0.4193248,-0.4480418,1.2905986,-1.0145291,-1.3061578,-0.5163465,0.0293320,0.0965904,-1.0906209,-1.4856548,0.8231755,-0.1120557,-0.3597376,-0.5238683,0.0232521,-1.0870763,-0.8000717,-1.1069328,-0.5443057,-0.9282098,-0.6931024
-0.5234942,-0.5958168,1.5510757,-1.0540217,-1.6870018,-0.3737338,-0.0638811,-0.0115375,-0.8157059,-1.2326508,0.7142782,-0.0639306,-0.4356334,-0.6709319,-0.5558521,-0.6941290,-1.2195070,-1.0897863,-0.7756348,-1.2616545,-1.0724084
-0.3578789,-0.5669982,1.2129384,-1.5485913,-1.0832000,-0.4169943,-0.5899526,-0.0579536,-1.2719215,-1.4019786,0.7122353,-1.3460628,-0.8027279,-0.6259547,-0.2311437,-1.3315135,-1.0860155,-1.3366190,-0.6637457,-1.3844585,-1.2042305
-0.0110811,-0.7622387,0.8400770,-1.6670706,-1.3133541,-0.5027829,-0.9271412,-0.2480560,-1.3276130,-1.0498974,0.6657161,-1.1212479,-0.9807659,-0.7441698,-0.2633473,-1.7103649,-1.3004848,-1.6832827,-0.8282439,-1.2271371,-1.1523153
-0.0215181,-1.5194077,0.3873267,-1.5237223,-1.3776498,-0.7572513,-0.6414317,-0.0492032,-1.0494950,-1.1941804,0.7203179,-1.0668931,-1.0982364,-0.6577042,-0.2278333,-1.3423293,-0.8234945,-1.3580859,-0.6264290,-0.8782063,-0.9213194
-0.4855354,-1.4292469,0.6799656,-1.5654737,-0.8160481,-0.7942655,-0.1862560,0.0863052,-0.4165588,-0.5405167,0.9041522,-1.5265633,-0.9080598,-0.7409125,-0.4869918,-0.9858611,-0.5332985,-0.8500009,-0.4194885,-0.7934147,-0.8053733
-0.7529125,-1.0873798,1.2748905,-1.3909013,-0.5766801,-0.3326583,-0.3132289,-0.1693214,-0.9784243,-0.2837628,0.9118748,-1.0135255,-0.5898877,-0.3570041,-0.2807734,-0.2582248,-0.3653596,-0.6878026,-0.4521679,-0.4369343,-0.5702770
-0.8630571,-0.6208636,1.2463024,-1.2606709,-0.4980998,-0.5112721,-0.2749205,-0.0041045,-0.4872115,-0.0529382,0.8531758,0.0284043,-0.2734889,-0.6432449,-0.6074935,-0.2262947,-0.3339576,-0.5863451,-0.4616626,-0.4331486,-0.3436000
-0.7658241,-0.8215324,0.0983578,-1.2370430,-0.8115188,-1.0470552,-0.2453934,0.2657255,-0.9410681,0.1410004,0.7803028,-0.1118829,-0.2122519,-0.3726186,-0.3437102,-0.2342665,-0.5777768,-0.2144150,-0.4563807,-0.6422284,-0.1983198
-0.9691055,-1.1567806,-0.1371252,-1.4938793,-0.3798817,-0.5373245,-0.0994172,0.3754000,-0.5286830,0.1056233,0.7061665,-0.8640568,-0.5927763,-0.1311641,0.1468567,-0.2370921,-0.2345673,-0.2172919,-0.4831053,-0.9356723,0.3018851
-0.8754803,-1.1107593,0.7436727,-0.9956568,-0.9781330,-0.5912447,0.1690528,0.2119772,-0.0725933,0.1057508,0.6327100,0.2945801,0.0843868,0.2470303,0.6518861,-0.5532560,-0.1807470,0.0024093,-0.7453466,-0.7616443,0.4740984
-0.4631106,-1.0312904,1.0404009,-0.3868817,-1.0816308,-0.6211803,0.3034481,0.1534469,-0.1822542,-0.4992790,0.6885540,0.2273368,0.3666764,0.2904237,0.9975110,-0.3055253,-0.2935620,-0.0915676,-0.7104852,-0.7673259,0.0520297
-0.2368061,-0.9189265,1.0049276,-0.4370956,-0.8310100,-0.5040884,0.3874241,0.3999662,0.0947575,-0.2000528,0.6017425,-0.4231877,0.1547605,0.3207734,0.4039950,-0.2537180,-0.4314180,-0.0755157,-0.5323929,-0.7496768,0.0431266
-0.1991636,-1.0189301,0.0960161,-0.8158066,-0.0161506,-0.2359606,0.1801960,0.1841384,-0.3548726,0.2723288,0.7075252,-0.5343164,0.1503516,0.6260132,0.2018576,-0.4277126,-0.4894388,0.0152978,-0.5530522,-0.3872188,-0.1371527
-0.6032097,-0.7604868,0.4826728,-0.9114104,-0.9225073,-0.1046201,0.6206375,0.1527117,-0.0209112,-0.3592387,0.8256201,0.2756882,0.1115000,0.6258798,0.0965698,-0.2376288,0.0332612,0.1405836,-0.0617747,-0.0028221,-0.2794142
-0.6745040,-0.1556698,0.6990228,-0.7850256,-1.0573562,-0.3505096,0.2097974,0.3771615,-0.7227697,-0.6926032,0.8967569,0.1389445,-0.1750959,0.2590759,0.6126604,-0.3330495,0.3659068,-0.1234587,0.0042408,0.0748169,-0.0486161
-1.0456487,-0.5346871,0.2115590,-0.6551160,-0.8652044,-0.8695022,0.2636473,0.3096045,-0.7927348,-0.5834885,0.9985330,-0.0235627,-0.5732884,0.3893630,0.3892859,-0.1179658,0.3790812,-0.6999442,0.0041570,0.1104319,-0.2264301
-1.6541293,-1.2004009,0.0398265,-1.5336405,-1.4055108,-1.1664754,0.1716086,-0.3386863,-1.2312164,-0.7591097,0.9927506,0.0611879,-0.3119483,0.0484763,0.2237440,-0.5243548,-0.1037456,-0.6479216,-0.4176770,-0.1075544,-0.4695167
-0.9563754,-1.1459483,-0.1360961,-1.1006821,-1.0286741,-0.9670417,0.0560551,-0.1735607,-1.2190347,-1.2920728,0.9336639,-0.2016210,-0.5812619,-0.2128699,0.5473019,-0.5841522,0.0926944,-0.6117075,-0.3758446,-0.5732825,-0.5335116
-0.8448376,-0.6856936,0.2225835,-0.6936085,-1.4052304,-0.5443465,0.2415015,0.2163804,-1.0806212,-0.7516852,0.8465655,-0.3015290,-0.2176024,-0.1836466,0.1374430,-0.1262104,-0.0658101,-0.2325569,-0.3124446,-0.2886970,-0.4123754
-0.8152055,-0.7218994,0.7360587,-0.5768119,-0.8618294,-0.3962215,0.3668590,0.1356019,-0.6267995,-0.1181124,0.6526763,-0.2974055,-0.0248069,-0.0732087,0.4166674,-0.5317131,-0.0747025,-0.2268356,-0.5615246,-0.6063883,-0.0935405
-0.5920232,-1.3199936,0.7779986,-0.9383458,-1.0981218,-0.5581489,0.1611878,0.2082005,-0.6056553,-0.0179303,0.7418588,-0.3315429,-0.1988919,0.0392710,0.3676738,-0.6716780,-0.3796757,-0.3093136,-0.5931860,-0.8849261,-0.0245809
-0.1234054,-1.0732076,0.4018103,-0.9019276,-0.4630260,-0.5689957,0.0349228,0.4852250,0.0538039,0.2251918,0.8189784,-1.0154229,-0.6888139,-0.4918100,0.4791020,0.1026007,0.0314300,-0.3531378,-0.4377519,-0.4927244,0.0739133
-0.6272045,-1.4181854,0.8064270,-0.8834693,-0.6736712,-0.6567028,-0.2251133,0.4730615,0.0339375,-0.2491243,0.9201149,-0.6537407,-0.4143418,-0.3206441,-0.0516093,0.0612327,0.5744244,-0.8140638,-0.7695131,-0.2077718,0.1496022
-1.2378677,-1.4833952,-0.4501505,-1.3495407,-1.5650024,-0.8780743,-0.6233279,0.1142903,-0.4879722,-0.3961842,0.9206436,0.0299562,-0.7908669,-0.6405664,-0.7645269,-0.5606497,-0.2077123,-0.8465851,-0.9095961,-0.3416500,-0.2807316
-1.4780334,-1.7169604,-0.5949709,-1.7731164,-1.6737863,-1.1168314,-0.6644468,-0.1906289,-1.3696061,-0.2222878,1.0145601,-1.0853693,-0.9580827,-0.9215505,-0.3223388,-0.7243471,-0.1805479,-0.4840972,-0.5436681,-0.1438472,-0.4702962
-1.1070898,-1.1938977,-0.0922431,-1.6460053,-1.3499568,-0.7672909,-0.7148232,-0.2314761,-0.7632834,-0.6218308,1.0421607,-0.6195619,-0.5488468,-0.5736011,-0.3272862,-0.2804344,0.2147215,-0.3421275,-0.1514180,-0.1008015,-0.3108377
-1.1302388,-1.6933714,0.3309108,-1.9299899,-1.3256675,-1.0867761,-0.4219080,-0.1539166,-0.4281248,-0.6828942,0.9522796,0.2813617,-0.4637100,-0.6683474,-0.3709284,-0.3630094,-0.3521381,-0.1566244,-0.4012564,-0.2133770,-0.3459580
-1.0859629,-1.1683047,0.5858034,-2.0315833,-0.8031350,-0.5208521,-0.1846134,-0.3340619,-1.3365356,-0.7527497,0.8797922,-0.2626272,-0.3033146,-0.6686118,-1.0447713,-0.9183314,-0.4177194,-0.1049271,-0.8291639,-0.4517988,-0.3238509
-0.2980081,-1.0360098,0.8200705,-1.9263501,-0.9213857,0.0914725,0.0544496,-0.2314802,-1.0977871,-0.9481584,0.6848181,-1.2332217,-0.5011003,-0.8140971,-0.6664844,-1.3488038,-0.7519882,-0.0711888,-0.6924694,-0.4070527,-0.4855531
-0.4445029,-0.6650892,0.9580768,-1.8022964,-0.9145446,-0.1362054,-0.0726055,-0.2645994,-1.0891510,-0.6693267,0.5769508,-0.4412341,0.0066268,-0.3120638,-0.9258248,-1.3974824,-0.5754986,0.1935460,-0.9753848,-0.6226143,-0.3519741
-0.6300422,-0.4743851,0.9948895,-1.3914973,-1.3545120,-0.0262924,-0.3077327,-0.1155770,-1.1121689,-0.7841028,0.5830739,-0.2510360,0.2087011,-0.1222602,-0.7929525,-1.1566777,-0.1848961,-0.0514416,-0.8254335,-0.3321231,-0.5179842
-0.5462280,-0.5892254,0.9772782,-0.9729915,-0.8967793,-0.3392876,-0.3535932,-0.0649845,-1.2163161,-0.8308663,0.7073877,-0.1731745,-0.3914222,-0.3814102,-0.2880131,-0.8541817,-0.4270181,-0.3271814,-0.7091919,-0.1645144,-0.7089598
-0.8234412,-1.1961621,0.7274763,-1.2022506,-0.9164858,-0.1988033,-0.3484543,-0.1088263,-0.8554567,-0.7463357,0.8279034,0.1193781,-0.6432465,-0.4715263,-0.3879994,-0.9122606,-0.7007939,-0.1878892,-0.7447088,0.0687146,-0.7749050
-1.1609787,-1.5742434,1.0739214,-1.1724954,-1.2191197,-0.1295291,-0.2414942,-0.0557999,-1.0283651,-0.5169069,0.9705988,0.5780454,-0.3467644,-0.3841302,-0.0990670,-0.8194383,0.1844147,-0.0274401,-0.6707783,0.1787349,-0.5502211
-0.7806846,-1.1821955,1.0761377,-1.0628923,-0.8983955,-0.3891027,0.0182452,0.3092148,-0.6755657,0.3799670,1.1171300,0.0765406,-0.5993842,-0.0943783,-0.0129243,-0.4841465,0.3342764,0.0535936,-0.3165953,0.2168541,-0.3693479
-0.7948313,-1.2460089,0.7584180,-1.3950642,-1.0859491,-0.3470471,-0.1348267,0.1593965,-0.8865612,0.2333995,1.0206641,-0.6160870,-0.4860319,-0.2674824,-0.3383677,-0.6058924,0.0801869,-0.1437462,-0.4825520,-0.1452947,-0.4210380
-0.6775580,-1.0777173,0.6195568,-0.9601494,-1.4138632,-1.0540165,-0.0866244,-0.1734904,-0.8976074,0.1382252,1.0677310,0.4262702,-0.2362215,-0.5487692,-0.3986769,-0.8570378,0.0131117,-0.2545723,-0.5650188,-0.2888428,-0.3282295
-0.6859156,-1.1416643,0.4982690,-1.3189718,-1.7645966,-0.7371079,-0.0198934,-0.0564661,-1.3160961,-0.3958002,0.9317794,-0.0499045,-0.1143673,-0.3474725,-0.2701371,-0.9306870,-0.0990275,-0.0069713,-0.3625163,-0.2315225,-0.5502567
-0.6503590,-0.7601057,0.9128768,-1.4397368,-1.5193695,-0.4245737,0.0017224,0.0177497,-1.4738196,-0.7629833,0.7796184,-0.6128370,0.1151614,-0.2442595,0.3617220,-0.5632150,-0.1190413,0.3893950,-0.4945703,0.1080910,0.1368967
-0.7883856,-0.4326433,1.3562922,-0.7378501,-0.8616047,-0.5621731,0.4599311,-0.0775513,-0.7142889,-0.6730026,0.8103010,0.3061777,0.4857878,0.2390438,0.1977602,-0.2842527,-0.0507977,0.4344569,-0.3034810,0.2087214,0.3637755
-0.4764219,-0.3076003,1.2861686,-0.5477821,-0.5597950,-0.1525774,0.4254749,0.1483048,-0.5091061,-0.3519933,0.5147943,-0.2152640,0.6661000,0.3095093,0.0053293,-0.5223916,-0.0304223,0.5560288,-0.0127220,0.6177323,0.3780788
-0.2595095,0.3564101,1.3259822,-0.5033727,-1.2727983,-0.0487186,0.7190414,0.1825521,-0.5561719,-0.3903834,0.6266068,-1.0905445,0.9870377,0.2503289,0.0668938,-0.6700707,0.1490771,0.4879438,0.0312252,0.8212812,0.3744007
-0.5967980,-0.9805587,0.7255623,-0.7694296,-0.9846933,-0.8450746,0.2921175,-0.1393584,-0.5676025,0.1340455,0.8146392,-0.9904050,0.5899818,0.6721417,-0.6603213,-0.7943313,0.3750132,0.4030185,0.0346948,0.8000095,0.3956717
-1.0726978,-1.4560872,-0.3362035,-0.6253638,-1.5058848,-1.1770577,-0.1309927,-0.3803830,-1.4343293,-0.5665015,0.7739120,-0.3338401,0.0889450,-0.2213420,-0.8912201,-0.7572740,0.0581882,0.0857836,-0.1929153,0.2388640,0.1548020
-1.0442110,-1.2747147,-0.0002833,-0.5653768,-0.8269559,-0.5468954,-0.1272838,-0.3028572,-1.3720125,-0.9006724,0.7555336,-1.0319417,-0.1574865,-0.4965083,-0.5287283,-0.3641001,0.3475766,0.1151524,-0.3167695,0.0355875,0.1798754
-0.7791471,-0.7640524,0.4131477,-0.8417566,-1.0860087,-0.3443528,0.0312287,-0.0581487,-1.0959867,-0.9974216,0.8021269,-0.9645380,0.0471016,-0.3130929,-0.1135016,-0.8561735,-0.1991574,0.1136779,-0.6225809,-0.0226945,0.0672141
-1.0745274,-1.2861655,0.3066396,-1.6162925,-2.4855363,-0.4951545,0.0229252,-0.2840305,-1.1868896,-1.3530859,0.6140906,-0.3775859,-0.1170120,-0.3021599,-0.6273599,-1.6060886,-0.9670471,-0.2930123,-0.7786030,-0.4082629,-0.3506119
-1.3884344,-1.4966546,0.8601820,-1.7452573,-2.0861759,-0.8050194,-0.2727707,-0.4450816,-1.4774922,-1.7326356,0.7806027,-0.6027883,-0.4723649,-0.4645473,-0.9930519,-1.5474678,-1.0087857,-0.0450636,-0.7171726,-0.4198102,-0.0922452
-1.1456436,-0.7040781,0.6543942,-1.1094427,-1.5181636,-0.7440122,-0.1846000,-0.2998868,-1.7470486,-1.3673438,0.6381143,-0.7075117,-0.3457544,-0.4979287,-0.0697792,-1.1743108,-0.7436022,-0.0988416,-0.3603612,0.0745469,-0.1340333
-0.9065809,-0.9930595,-0.1541702,-1.0336999,-1.0609452,-0.9910306,-0.2247715,-0.2310075,-1.0435380,-1.0172300,0.6412786,-0.3750802,0.1129989,-0.4353343,-0.3096680,-0.9183975,0.0230400,0.2065727,-0.3877370,0.2289907,-0.0424865
-1.5225369,-1.2754151,-0.2275576,-1.3181554,-1.4398353,-0.7958217,-0.3611171,-0.1972844,-0.9524414,-0.5786065,0.8191743,0.3063351,-0.0848321,-0.2144799,-0.7414205,-1.3027511,-0.3107673,0.2023564,-0.4324781,0.1837614,-0.3626010
-1.7536310,-0.9722133,-0.3456775,-1.5407208,-1.3556740,-0.8960091,-0.2133847,-0.1474756,-1.8697131,-1.0208000,0.8027834,-0.3719807,-0.3534403,-0.3682150,-0.9055755,-1.1496198,-0.2944452,-0.0833794,-0.4750187,-0.4868346,-0.6150823
-1.7191069,-1.3916737,-1.2315781,-1.7642208,-0.9087888,-1.0054328,-0.3341575,-0.2680553,-0.6958935,-1.0140209,1.0066954,-0.4720618,-0.5304916,-0.6320322,-0.5915929,-0.6986986,-0.1554967,-0.4871434,-0.6832867,-0.2376798,-0.6713802
-1.3034868,-1.5394599,-0.9000781,-1.2541649,-1.0713605,-0.9000117,-0.6841386,-0.1820872,-0.7481951,-0.1650090,1.0927404,0.1410112,-0.4245896,-0.5731307,-1.0107832,-0.9300604,0.2659069,-0.2058616,-0.3654678,0.2898931,-0.6285693
-1.1716119,-1.0719665,-0.9072355,-1.3400356,-0.8113295,-0.9192520,-1.0213856,-0.1256091,-0.7705407,-0.1096109,0.9896597,-0.9735890,-0.7272882,-0.3616597,-0.0972881,-0.4162124,0.1051658,-0.2421921,-0.1311792,0.4631103,-0.6978763
-1.0739889,-0.9282940,-0.1826277,-1.0477585,-0.6167669,-1.0246049,-1.0947955,-0.2253784,-1.0447243,-0.4591989,0.8407164,-0.6470994,-0.8544310,-0.9971720,0.1392577,-0.4000337,-0.1332663,-0.1296788,-0.3265983,0.4259204,-0.4683147
-1.2828757,-1.0787644,0.2994493,-1.2248152,-0.2037788,-0.6891565,-1.0075229,-0.2631915,-0.8311986,-0.3777834,0.8364087,0.0570119,-0.5659847,-0.8567409,0.4475003,-0.6856296,-0.4088469,-0.1838455,-0.0946129,0.0095566,-0.3403415
-0.6927634,-0.9666589,0.7298668,-0.9850112,-0.2599060,-1.0084727,-0.5088265,0.2084119,-0.6631665,-0.4178557,0.8547292,-0.3059562,-0.4192005,-0.6880555,0.5282559,-0.1710235,-0.1007702,0.0567208,0.2914716,0.2694950,-0.6526673
-0.7545179,-1.2642087,-0.0006301,-1.3305289,-0.7613747,-1.0776311,-0.5280775,0.3131263,-0.8072662,0.1235643,0.8745735,-0.6496625,-0.3974259,-0.4958489,0.7009101,0.0952206,-0.0471614,-0.3751070,0.0580313,0.4250240,-0.9557682
-0.9397324,-1.7890828,-0.7063971,-1.2509496,-0.5993437,-0.8110043,-0.4754915,0.0515866,-0.3058855,0.2621979,0.9301403,-0.5304512,-0.7043630,-0.7962238,0.6906149,-0.2394558,-0.5470320,-0.2526577,-0.0350446,-0.0404545,-0.7120219
-0.5926392,-1.2663573,-0.6595487,-0.6806522,-0.4415604,-1.0731610,-0.8518801,-0.0277208,-0.6680865,0.0232390,0.9216722,-0.6176867,-0.3588379,-0.6564298,0.5728712,-0.5410416,-0.5053331,-0.0596687,-0.2854128,0.0301623,-0.4349943
-0.0557667,-1.1867608,-0.8253239,-0.3910136,-0.4988092,-1.1182991,-0.5936329,0.2300272,-0.5232548,0.5171272,0.9266920,-1.5378718,-0.6920483,-0.6897129,0.1027221,-0.4753504,-0.4962900,-0.5128207,-0.1867467,-0.0307593,-0.5305747
-0.7339032,-1.0757717,-0.5685753,-1.1659231,-0.7474958,-1.1534706,-1.2369941,0.0399641,-0.5611407,0.4937328,0.8537201,-0.7356524,-0.5223250,-0.8842576,-0.3801663,-0.5068080,-1.0119869,-0.8288227,-0.6565804,-0.8125458,-1.2215563
-1.2489531,-1.6758105,-0.8197338,-1.3308741,-1.4686788,-1.5613749,-1.8489734,-0.1143809,-1.4269631,-0.5797349,0.8495072,-0.7315420,-1.2755473,-1.1641827,-0.7595579,-0.6706168,-1.6650747,-1.4407749,-0.8112547,-1.4278699,-1.5615368
-1.0556767,-1.6725379,-1.0457188,-0.7148920,-1.5694735,-1.0761461,-1.7275347,-0.1444850,-1.0519618,-0.4201719,0.8938046,-0.9071507,-1.3770388,-1.5745714,-0.2034027,-0.7223986,-1.0091124,-0.8632568,-0.7288241,-0.8587347,-0.9757733
-0.6799445,-1.3996561,-0.3088015,-0.5169896,-0.0478154,-1.0277070,-1.0021546,-0.0134639,-0.8426568,-0.5958948,0.8235458,-0.9558309,-0.7589682,-1.3617371,-0.3644573,-0.7327506,-0.7853084,-0.8725191,-0.9894313,-1.0778106,-0.9140223
-0.6954173,-1.5504328,-0.0234902,-0.3783830,-1.1001740,-0.9779906,-0.8373493,-0.1135198,-0.8108500,-0.0991756,0.6631672,-0.4344026,-0.3539439,-1.1374599,-0.4177548,-1.3524184,-0.8039138,-0.5641418,-0.9990503,-1.0150489,-1.3458230
-0.6818405,-1.2756851,-0.3640023,-0.9793515,-0.6684600,-0.7080289,-0.7612893,0.0133115,-0.9780266,0.4389897,0.8197584,-0.5217357,-0.2229763,-0.7254826,-0.2195047,-0.7977598,-0.7448024,-0.4806374,-0.8048676,-0.6328670,-1.1774441
-0.4191623,-0.7130421,-0.3838508,-1.2462751,-0.5824130,-0.5660902,-0.8432253,-0.1021857,-0.9965739,0.3266833,1.0271741,-0.6330408,-0.0808128,-0.7557933,-0.2581510,-0.7762125,-0.5774817,-0.3821017,-0.6688806,-0.2379624,-1.3486899
-0.7520300,-0.9960079,-0.3864882,-1.2576866,-1.2583120,-0.7537273,-0.7318611,-0.3613341,-1.0890956,-0.0037253,0.9788948,0.8036689,-0.0255133,-0.5682827,-0.9764613,-0.8449055,-0.6589231,-0.4982909,-0.9331383,-0.8502968,-1.0120922
-1.1616743,-1.5211170,0.2585998,-1.2946136,-1.4355961,-0.8668604,-0.7517691,-0.4632374,-1.0579883,-0.7780480,1.0708700,0.1663357,-0.0908670,-0.1654036,-1.1181902,-0.7171327,-0.6207618,-0.3738611,-1.0288546,-0.9978189,-0.9422545
-0.8777101,-0.8740789,0.5340324,-0.8427933,-1.0899955,-0.9125473,-0.8357254,-0.2887510,-1.3088933,-0.4911110,1.0694598,-0.7062167,0.3227244,-0.2566246,-0.7875324,-0.9456967,-0.3130130,-0.3193316,-0.9808450,-0.6018240,-1.3504310
-0.7534767,-0.9431187,0.0258458,-0.9229017,-1.1414965,-0.7859715,-0.4166975,-0.3178507,-1.5913000,-0.1491286,1.0454568,-0.3705705,0.1110689,-0.0735707,-0.8092363,-0.9310757,-0.5200081,-0.7387343,-1.1733032,-0.8843074,-1.2826947
-1.2259972,-1.3496014,0.2625138,-0.8859026,-1.1416569,-1.0143912,-0.4879691,-0.2494576,-1.3203113,-0.1194101,1.1727939,0.1420498,-0.5063170,-0.3182857,-0.5600199,-0.5293068,-0.5514452,-0.5185459,-0.8227209,-0.6612923,-0.9560465
-0.6631839,-0.7025568,0.6652053,-0.5436657,-0.5386823,-1.0243748,-0.5628752,-0.1613449,-1.0882419,-0.0801041,1.1673932,-0.7025064,-0.1823940,-0.6336262,-0.3338950,-0.8012301,-0.3812038,-0.6156126,-0.5846329,-0.3522572,-0.3425678
-0.6373758,-0.5791515,0.0552581,-0.0697782,-0.5123796,-0.8188152,-0.1794993,-0.0489789,-0.5337651,-0.2593856,1.0474690,-0.7067798,-0.2484603,-0.3121964,-0.9708552,-0.9411971,-0.5341861,-0.5626069,-0.7624593,-0.7281796,-0.6670008
-0.7778680,-1.0449498,-0.0697711,-0.3581998,-0.3621449,-0.9523928,0.1314491,-0.0098899,-0.2606171,0.1353310,1.0056814,0.0743821,-0.5209812,-0.5334335,-0.7117748,-1.4449153,-0.8996477,-0.6226367,-1.1725835,-1.1845047,-1.2479768
-0.3720925,-1.1870120,0.0668012,-0.5288053,-0.1041249,-0.5042797,-0.1894202,0.0988015,-0.7419059,0.0493768,1.1181897,-0.1923055,-0.5200866,-0.8225002,0.1117303,-1.1937081,-0.5970559,-0.3897077,-0.9433736,-1.0657651,-1.2562673
-0.0142847,-0.3930050,0.4227825,-0.3791086,0.0363629,-0.3955604,0.0009478,-0.0198233,-0.4631945,0.1112837,1.1176664,-0.6617767,0.2172496,-0.3783606,0.4332061,-0.3568684,-0.4249841,-0.0603171,-0.2496512,-0.5044047,-1.0097924
0.1609545,-0.7842614,0.8448214,-0.2944413,-0.0677683,-0.3333146,-0.0489684,-0.1947211,0.0429089,1.0548203,1.0944248,0.0307889,0.0423100,-0.0151758,0.2457850,-0.4027878,-0.2428818,-0.3331742,-0.1714245,-0.0302236,-0.6057149
0.0744161,-1.1764793,1.4602523,-0.3507428,-0.7313035,-0.4668725,-0.2055921,-0.0526760,-0.0818199,1.0276885,1.1488312,0.1249046,0.1840672,0.0099075,-0.0065590,-0.2546177,-0.0228240,-0.1895106,-0.3165769,0.0971260,-0.4809090
-0.2869548,-0.2447739,1.0715153,0.1104522,-0.4471934,-0.2440182,-0.3798370,0.0810956,-0.8906043,-0.4395543,1.2559928,-0.1055331,0.0641169,-0.1755821,-0.4463233,-0.2375897,-0.1325803,-0.4609149,-0.7846330,0.2085742,-0.7748336
-0.2026531,-1.2015647,0.4554226,-0.7692849,-0.8681914,-0.3228941,-0.1695611,-0.1987008,-1.2604436,-0.7513404,1.1311969,0.1662805,-0.4122382,-0.3020735,-0.8939906,-1.1018002,-0.2806066,-0.6937435,-0.9520112,-0.5927455,-1.2205582
-0.8951402,-1.3358799,0.0112482,-1.2810045,-0.7463456,-0.5790296,-0.4818734,-0.4368628,-1.3704747,-0.7888259,1.2160612,0.0661998,-0.6759340,-0.5842187,-1.7131402,-1.0359963,-0.2686435,-0.4843724,-1.1329296,-0.4810309,-1.2289782
-0.4938222,-1.1273304,0.3928801,-0.4492102,-0.1024617,-0.5972148,-0.7866405,-0.3145535,-1.6712599,0.1215618,1.2734621,-0.6255861,-0.6593985,-0.5260395,-1.6377147,-0.9744158,-0.1983272,-0.5779442,-0.8714452,-0.1265876,-0.9077075
-0.6413823,-1.4355918,-0.1054109,-0.2636426,-0.0313726,-0.4884664,-0.8948297,-0.4853069,-1.2799809,-0.0960838,1.2240036,-0.3517422,-0.3364276,-0.2854978,-1.3356631,-0.9871736,-0.0529401,-0.4776808,-1.1596310,-0.1061013,-0.8413886
-1.1005324,-1.2808452,-0.4461733,-0.3309832,-0.3772613,-0.7755762,-0.2732472,-0.5652769,-1.4360801,-0.3185184,1.2959881,0.9097221,-0.3255426,-0.1927588,-1.1398093,-0.9638026,-0.3346738,-0.2150678,-0.8260187,0.3245955,-0.4938433
-0.7902555,-1.2708268,0.1762165,-0.0707443,-1.1971917,-0.9227488,-0.3570823,-0.3449657,-1.0056270,0.1916572,1.2976650,0.1170580,-0.0660114,-0.2135060,-0.6764215,-1.0356662,-0.1044190,-0.2052840,-0.2798116,0.7297137,-0.2904795
-0.7139938,-1.0997666,0.1100289,0.0517309,-0.8227275,-0.5025290,-0.7262157,-0.0504920,-0.8942221,-0.0415788,1.3038994,-0.1155134,-0.2580015,-0.3414913,-0.2574060,-0.4995066,-0.1909496,-0.5761980,-0.4479657,0.6570054,-0.6178783
-1.1611618,-1.4859741,-0.4305945,-0.4539210,-1.1670029,-0.5334132,-0.9832599,-0.1237514,-0.6441698,0.7670452,1.1824452,0.3947961,-0.6319934,-0.6507236,-0.5454745,-1.0485972,-0.2696413,-0.5050988,-0.6460389,0.1806004,-0.6001166
-1.0087541,-1.4626580,-0.7215399,0.2676871,-1.6915541,-0.8889384,-1.2395948,-0.2105644,-0.7363589,0.3117738,1.2381555,0.1653742,-1.1527401,-0.9557518,-0.5270987,-0.7251009,-0.4292443,-0.6226969,-0.2917511,0.2803533,-0.6454653
-0.6633741,-1.5061831,-1.1174523,0.1841808,-1.4080650,-0.8397646,-1.3597281,0.0977151,-0.2815220,0.2997548,1.3778902,-0.3855225,-0.8272837,-0.8170815,-0.2148681,-0.4586729,-0.2056845,-0.6901783,-0.0606229,0.2404093,-0.8901044
-0.6405658,-1.3108009,-1.3127869,-0.0536377,-0.7714998,-0.7819064,-1.1893228,0.0523384,-0.2094036,0.0710872,1.5069304,-0.1237338,-0.6668165,-0.6246779,-0.0386655,-0.6629743,-0.4784847,-0.7916387,-0.3166074,0.1053656,-0.9022614
-1.0249033,-1.5421714,-0.7432063,0.4070160,-1.0693202,-1.1925585,-1.1369585,-0.1629194,-0.4222003,-0.0030065,1.4227149,0.5933790,-0.5906743,-0.6132976,-0.4214113,-0.6020355,-0.2332721,-0.6777130,-0.4376535,0.2918723,-0.6799981
-1.4419786,-1.4918857,-0.7533386,-0.0103420,-0.9565726,-1.2107862,-1.1947944,-0.0586618,-1.1396474,-0.2107275,1.5078261,-0.0245001,-0.6493645,-0.7092097,-0.5609297,-0.5327531,-0.4233836,-0.8643458,-1.0515382,0.0961712,-1.1261179
-1.2241874,-1.4135188,-0.4443675,-0.3077362,-1.6570257,-1.1594138,-0.8067893,-0.4106027,-1.1252426,-0.3952695,1.4718457,-0.5577420,-0.6808344,-0.8610359,-0.2417056,-0.4007569,-0.9565465,-1.0461853,-0.9144520,-0.0821221,-1.2557771
-0.9582814,-1.4606379,-0.6823087,-0.5210837,-1.5009136,-1.1087152,-0.6156053,-0.5350504,-1.1244881,-0.3753684,1.3855342,0.2269197,-0.3918543,-0.6757202,-1.0493807,-1.0845129,-1.2291912,-0.8191574,-0.6361735,-0.4117481,-0.9827787
-0.6757634,-1.5258621,-0.5377368,-0.7950875,-1.3944745,-1.1020259,-0.9604720,-0.4127699,-0.9866340,-0.4858426,1.2633760,0.0601464,-0.7668684,-0.5081435,-0.7527361,-1.3352952,-0.9275576,-0.6749989,-0.8572805,0.0398669,-1.0615947
-0.9788122,-1.6745096,-1.0016848,-0.4569638,-0.8312274,-1.2088786,-1.0439212,-0.5218613,-0.9442895,-0.4104125,1.4121975,-0.2885150,-0.6583116,-0.5312597,-0.7763255,-1.1070696,-0.4864888,-0.4936239,-1.2336608,-0.0142851,-1.0465642
-1.5486157,-2.0766616,-1.4491751,-0.0204380,-1.6869698,-1.4537448,-1.1666492,-0.5562150,-0.8750427,-0.5446575,1.5327225,-0.2126506,-0.8816997,-0.3847797,-0.5567839,-0.6956444,-0.3086473,-0.3519652,-0.8468633,0.5938489,-0.6213016
-1.0825975,-1.7395804,-1.0909998,-0.1576907,-1.2175516,-1.0787549,-0.8705643,-0.3132653,-0.8994088,-0.2712505,1.5497514,-0.0834161,-0.7176992,-0.5401110,0.1064953,0.0100045,0.0128226,-0.1006378,-0.7740257,0.7767196,-0.2153992
-0.4427097,-0.3157357,-0.1701397,0.2503543,-1.0465950,-0.6565929,-0.2480899,0.0341587,-0.7223076,-0.2230520,1.5198932,-0.5662013,-0.1121491,-0.3138931,0.6119679,-0.2646033,0.0554094,0.1102569,-0.5405993,0.5022062,0.2077749
-0.3115978,-0.3043981,1.2654492,0.2195785,-1.0574998,-0.3833622,0.0215723,-0.0467263,-0.8731681,-0.7090954,1.3638854,-0.3655362,0.1014180,0.5204684,0.8608927,-0.3114869,-0.1898741,0.1052375,-0.2480488,0.3546470,-0.0873164
-0.0423810,0.1410822,1.8179816,1.0077106,-0.6925126,-0.3821496,0.3930114,0.2204391,0.1980940,0.1075620,1.1721087,0.1313198,0.5348178,0.5689466,1.1287653,-0.5175691,-0.4344873,0.4930065,-0.1179712,0.6380569,0.0690804
0.0219074,0.2465279,1.8258245,1.4466347,-0.7175983,-0.5501814,0.6370487,0.5094389,-0.1379787,0.4839940,1.2482777,-0.5453556,0.3416910,0.4889113,1.2865620,-0.6809584,-0.4995740,0.2158874,0.0040281,0.4106527,0.0544646
0.1426559,-0.5862241,0.8708184,1.4328341,-0.4037123,-0.5224532,0.3847409,0.4867771,0.2881139,0.4460461,1.3880370,-0.1496630,0.4419108,0.2005824,2.1012406,-0.3576339,-0.3382943,0.0793683,-0.0827500,0.4542170,-0.5791414
0.3836045,-0.9628098,0.0604307,1.0647490,-0.3839284,-0.8116146,-0.4496860,0.4296104,0.8764556,0.1648190,1.3720951,0.3715833,-0.0021025,0.2277191,2.0770807,-0.4014606,-0.5907022,-0.1031778,0.1191937,0.1826321,-1.0446063
0.2692930,-0.8402172,0.1038623,1.2134801,-0.6907269,-1.0005326,-0.7843165,0.4899743,0.4480305,1.3106185,1.4213369,-0.5104252,-0.4984872,-0.1950704,1.9098516,-0.3334732,-0.7171619,-0.4018495,0.1533080,-0.0127276,-1.3088219
-0.1047913,-1.0703402,-0.0263717,0.5440412,-0.5834227,-0.5777330,-1.1318840,0.3284164,0.5724322,0.8763989,1.3806751,-0.6499158,-0.6767502,-0.6208934,0.8313609,-0.4049599,-0.8647963,-0.9254456,-0.3555421,-0.0838646,-1.2650496
-0.0794417,-1.6786054,-0.8137657,0.1919931,-0.4520991,-0.9459497,-1.1707569,0.0548714,-0.1859795,0.3066949,1.3926458,0.2319622,-0.8885601,-0.3603642,0.7181118,-0.7569958,-0.3777140,-0.6607323,-0.5226216,-0.1956300,-1.1423334
-0.3802010,-1.3532614,-0.3925166,0.4345642,-0.5338107,-0.4229272,-0.3755137,-0.0891547,0.0755165,0.3032667,1.3546386,0.2636206,-0.5923139,-0.1738974,0.9197165,0.1963832,-0.3066100,-0.2464832,-0.4326679,0.0605869,-0.7441066
-0.2443098,-0.3712619,0.5838433,0.4978031,-0.3227676,-0.5678517,0.1413071,0.1857060,-0.0003560,0.7202281,1.4828757,-0.4192768,-0.1311563,0.1329438,1.3229660,0.0497644,-0.3417152,0.1562906,-0.3833932,0.7511572,-0.3130670
-0.6156152,-0.2946406,0.4297780,0.2373618,-1.0511507,-0.5436945,0.0551504,0.1620701,-0.6287513,0.2437861,1.4198439,-0.0613974,0.2323646,0.1763551,0.9286203,0.0276425,-0.4396764,0.1232699,-0.5290607,0.5417051,-0.1208054
-0.5793178,-0.9606885,0.3349195,0.5121151,-0.7492115,-0.5284474,-0.1654997,-0.2271397,-0.9185842,0.0767181,1.3703741,0.6480018,0.0512210,0.1019693,0.3290004,-0.5632502,-0.5251490,-0.0735531,-0.4683107,0.2120185,-0.4093412
0.0793216,-0.4373423,0.4422095,0.5613988,-0.5471017,-0.1322945,-0.1304805,-0.2637066,-0.6246003,0.2377398,1.4584479,-0.3011267,0.0210440,-0.2208875,0.6351483,-0.1402617,0.0894734,-0.1396745,-0.2543401,0.0892431,0.2323799
0.2652854,-0.8020027,0.2986390,0.4985810,-0.6131383,-0.3217309,-0.1853035,0.0100690,-0.0799509,-0.1504550,1.4494873,0.0146469,-0.3626236,-0.0833065,0.6000798,0.1102220,-0.2153996,-0.2515015,-0.5137170,0.5450863,-0.3416911
-0.5554772,-1.0308523,0.0062921,0.6696535,-0.7557436,-0.8992525,-0.4184558,0.0147608,-0.7510613,0.0065373,1.1715726,0.3206838,-0.6290917,-0.3554264,-0.1505676,-0.9494975,-0.6946787,-0.6035391,-1.1023000,0.2125431,-1.1150887
-0.4685433,-0.5353162,0.2895867,0.1652859,-0.3496810,-0.7125161,-0.2355265,-0.1372184,-1.0103314,0.0076215,1.3534471,-0.5236353,-0.4551120,-0.3865266,-0.4372230,-0.6120976,-0.4174995,-0.4956382,-0.9454834,-0.5196515,-1.1298990
-0.0007140,-0.5166532,0.2367881,0.0659071,0.0653521,-0.4777577,-0.7309815,-0.0453335,-0.9931600,-0.1371709,1.4368927,-1.0237412,-0.2564235,-0.2577131,-0.3861742,-0.8990861,-0.0249372,-0.3087424,-0.8186885,0.0972089,-0.9400160
-0.1443646,-0.4921942,0.3084523,0.0189359,-0.3710453,-0.7463863,-0.6916161,-0.1305699,-0.6110213,0.7537093,1.5202653,0.1846632,-0.4770666,-0.3042940,-0.4319125,-0.5801471,-0.0560936,-0.5226608,-0.9048427,-0.0012170,-0.7158979
-0.2963974,-0.3404165,0.0976393,0.5641510,-0.5205967,-0.8493289,-0.3691445,-0.2466063,-0.6835005,0.0954265,1.4388409,0.1320018,0.1848076,-0.6201285,-0.2175549,-0.0402516,-0.2777446,-0.2224158,-0.9572423,-0.1541925,-1.0680461
