F3,Fz,F4,Fc5,Fc1,Fc2,Fc6,T3,C3,C1,Cz,C2,C4,T4,Cp5,Cp1,Cp2,Cp6,P3,Pz,P4
-0.0220268,0.7204901,0.2494254,0.4672145,0.1159002,0.6767935,0.1823698,-0.9390532,0.1450315,0.1919136,0.3594964,0.1560962,0.4213808,0.2560709,-0.3271779,0.0768805,0.1127594,0.3911335,0.1406603,-0.0504032,-0.0426070
-0.0164012,0.9835726,0.5473967,0.5329903,0.3542301,0.5430967,0.2179078,-1.1016926,0.3913276,-0.0744284,0.1397046,-0.0555536,0.1419990,0.1609012,-0.3472922,0.0166679,-0.0338009,0.1778588,0.0438944,-0.3339990,-0.1777481
-0.0723484,0.7401592,0.4190181,0.2834456,0.1649925,0.4744526,0.1410698,-1.0429863,0.2276637,0.4413415,0.2503881,0.3845431,0.1208718,0.0270984,-0.5114388,0.1288732,0.0552691,0.1666210,0.0674796,-0.0889546,0.0303361
-0.1973945,0.7877792,-0.1415817,0.2103245,-0.0985778,0.2768520,-0.0833703,-1.2224467,-0.3449238,0.2710781,0.6141899,0.4706210,0.0492117,-0.0004529,-0.8066054,0.0214888,0.2187518,0.2213127,0.0351187,0.0958247,0.0611835
-0.1619108,0.9579142,-0.1286107,0.1539252,0.2612047,0.0328313,-0.0798712,-1.1124911,-0.2500292,-0.2370302,0.6820996,0.1366442,-0.0424204,-0.0646073,-0.8028049,0.2815948,0.4776643,0.1913657,0.0726091,0.3664330,0.1660687
-0.0106098,0.7634036,0.0430277,0.2388524,0.2671553,0.7067924,-0.1995181,-1.1992178,-0.2072239,-0.1308709,0.4060120,0.3061150,0.0908114,0.0132743,-0.6669913,0.2393719,0.4616518,0.3093226,0.1461358,0.4630378,0.0338205
-0.0322652,0.7448159,0.1543749,0.2744862,-0.2478069,0.2936577,-0.0740747,-1.3809115,-0.2429170,-0.3599841,0.0155369,0.3377297,-0.1612495,-0.0010742,-0.8316947,0.3259632,0.3056431,0.0630305,-0.1404893,0.4541469,-0.0809383
-0.1314131,0.9580357,0.1594592,0.1062062,-0.2909629,0.0660208,-0.2291886,-1.3056953,-0.3365824,-0.6285859,-0.0755808,-0.2025909,-0.2923544,-0.3683887,-1.1373547,0.2560478,0.1927120,-0.3656938,-0.2000801,0.2519506,-0.3947692
-0.2197801,0.6776504,-0.0611318,-0.0300147,-0.5320944,-0.0026084,-0.3518512,-1.4156164,-0.4626395,-0.7996587,-0.0841357,-0.2667876,-0.5360145,-0.4853386,-1.1261028,-0.1158185,-0.0303363,-0.6006304,-0.4358836,0.0054090,-0.5402547
-0.2988229,0.4056922,-0.1113958,-0.1152714,-0.9175382,-0.5130628,-0.4477373,-1.5191181,-0.6023076,-0.8060049,0.0110503,-0.1795442,-0.5561022,-0.4899555,-1.0666059,-0.0049034,-0.0065706,-0.3796180,-0.4050784,-0.2827253,-0.4505517
-0.2606769,0.6282988,-0.0609787,-0.2223338,-0.3438392,-0.0362129,-0.3081822,-1.4126292,-0.4442022,-0.5636605,0.2763017,-0.1024646,-0.5633780,-0.6858416,-0.9049382,0.3164021,0.1652874,-0.1120198,-0.1200276,0.1832159,-0.2398684
-0.3256536,0.7298081,-0.1499900,0.0003676,-0.2025107,0.4938527,-0.3681280,-1.2224759,-0.1984250,-0.4061148,0.4265887,-0.2119288,-0.4840744,-0.5089175,-0.8063685,0.6014127,0.3328235,-0.1350326,-0.0616781,0.4589832,-0.0781178
-0.3748656,0.6423619,-0.2694794,0.0131763,-0.5264955,0.4594502,-0.5786909,-1.2414432,-0.4195251,-0.1275749,0.6046128,0.3226581,-0.2935961,-0.4147171,-0.8222583,0.4281043,0.6265567,-0.1332239,-0.0210095,0.4933696,-0.1589686
-0.4372798,0.5267902,-0.2341608,-0.0766927,-0.5781391,0.3951414,-0.2683170,-1.4066265,-0.4660405,0.2773637,0.7043054,0.5302792,0.0053509,-0.3599657,-0.9419285,0.5893515,0.7013324,0.0339286,0.1194458,0.5570658,0.0743715
-0.3034919,0.6578894,-0.1132021,-0.1204625,-0.7422863,0.6996775,-0.1727948,-1.3453771,0.1060664,-0.0157439,0.8325689,0.2228739,0.1210246,-0.1207763,-0.6881126,0.9302729,0.8502087,0.1885585,0.1428800,0.7137765,0.1930872
-0.3259063,0.5987864,-0.0484554,-0.1942574,-1.0268458,0.8471619,0.0918774,-1.3551689,-0.1016377,-0.5037601,0.6980656,0.2498745,0.1828137,0.2183080,-0.6880890,1.0765527,0.8900968,0.2498107,0.0930889,0.6662870,0.1628697
-0.3881608,0.6486927,-0.0083042,-0.3359734,-0.9547176,0.2133462,0.1874577,-1.3318704,-0.1035193,-0.1217007,0.3314034,0.5792385,0.3386593,0.3218639,-0.6497678,0.5290782,0.5231246,0.4309232,0.3095817,0.5891660,0.2254092
-0.3233065,0.8520982,-0.0504832,-0.0190828,-0.8857318,0.2937784,0.3093554,-1.3176904,-0.1059858,-0.2093810,-0.1057175,-0.0079598,0.2167419,0.4325402,-0.3524711,0.1283478,0.3224615,0.5798808,0.5944328,0.5580540,0.3186721
-0.1490976,0.8856968,0.1890836,0.2097114,-0.3297042,0.6669435,0.3575468,-1.0754275,0.3076303,-0.4121227,-0.5048981,-0.2410543,0.2730378,0.4442845,-0.1739828,0.2878118,0.3462731,0.6520092,0.6631348,0.5217360,0.4349230
-0.1384944,0.8880457,0.3539023,0.2934912,0.1068636,0.7354690,0.4260940,-1.1193213,0.5762406,-0.7032816,-0.4401238,-0.0726598,0.4840403,0.5149957,-0.3858753,0.2913588,0.1011740,0.6586039,0.4619717,0.4404706,0.3967212
-0.1313996,0.9497540,0.3413252,0.1961094,-0.2233620,0.6925321,0.4810816,-1.1696893,0.0636557,-0.2116551,-0.4166751,0.2120348,0.3631263,0.5272191,-0.5109291,0.2380064,0.4918953,0.6531887,0.2878161,0.4127862,0.3513209
-0.1216264,0.9239224,0.4968860,0.2469431,-0.1694439,1.0662112,0.4442697,-1.3116125,-0.1988911,-0.2164844,-0.0831441,0.1914265,0.5023052,0.5824627,-0.4414667,0.3354631,0.7011154,0.7955101,0.3237379,0.7564580,0.4325177
-0.1967234,0.7767003,0.3930492,0.2526157,-0.5325447,1.1316543,0.3210199,-1.3200003,-0.3411192,-0.4800694,0.5536714,0.7840278,0.5531092,0.5646958,-0.6496140,0.3778303,0.8326511,0.6614102,0.0490723,0.9566218,0.5220206
-0.2368873,0.7094945,0.0768549,0.2000130,-0.7634225,1.0429991,0.1869146,-1.2174805,-0.5194808,-0.2692869,0.6245330,0.8315839,0.3073221,0.5098072,-0.6148592,0.7004755,0.5519699,0.3358959,0.1375715,0.8708538,0.2412826
-0.1991518,0.6387588,0.0121066,0.2542521,-0.5386475,0.5170710,0.1283177,-1.1426365,-0.3031703,-0.2613462,0.5004131,0.4027035,0.2475803,0.1468632,-0.3094721,0.3475589,0.4741959,0.2575676,0.1587411,0.7158962,0.2027983
-0.1114368,0.6591536,-0.2004619,0.4741319,-0.1318470,0.1105357,0.0340033,-1.3158287,-0.2255752,-0.0374346,0.2255814,0.3498370,0.1776037,0.1289488,-0.5518351,0.0450300,0.3051901,0.0593860,0.0866746,0.7528092,-0.1321135
-0.0955502,0.6499537,-0.1361340,0.4376009,0.0091710,0.2059038,-0.0841967,-1.3912908,-0.0633604,-0.3748324,0.1635673,0.5204471,-0.2968776,0.0410344,-0.6397460,0.2153293,0.1896854,0.0660640,0.0874471,0.8067906,-0.0070614
-0.0277253,0.7521437,0.0600650,0.3900454,0.0189667,0.1088354,-0.1390021,-1.2034612,0.0214836,0.0562884,0.0342577,0.1791814,-0.3275849,0.0285906,-0.4547727,0.3150237,0.5090165,0.1613363,0.0915467,0.5237218,-0.0695797
0.0031224,0.9374980,0.5675229,0.4346221,0.1327073,0.2592563,0.1783342,-1.1409454,0.2272769,0.1794452,0.2025222,-0.0343866,0.2394010,0.3001779,-0.0735247,0.7014371,0.5187612,0.3785904,0.5200546,0.6972803,0.1836547
0.0228965,0.8039603,0.5476407,0.6799990,-0.0426307,0.7667193,0.4734401,-1.1856464,0.4640775,0.2782566,0.2678404,0.2915983,0.4046886,0.5450280,0.1429340,0.8921240,0.5956980,0.4566035,0.6914836,1.0291750,0.3002653
0.0720668,1.0133395,0.6664823,0.7518526,-0.1510656,0.5733057,0.5018576,-0.9521205,0.8581081,0.5154889,0.3034628,0.2462490,0.5728137,0.4777067,0.1563624,0.9243220,0.6783591,0.5485573,0.6151150,0.6936564,0.2046278
0.1632196,0.7573079,0.4617637,0.5264954,0.0837318,0.8699682,0.3610534,-0.9142305,0.9345486,0.3790932,0.3061538,0.2310068,0.3885844,0.4262305,0.2364355,0.8422882,0.5341729,0.2658266,0.4896176,0.5783309,-0.1493085
0.1009422,0.6979381,0.4034671,0.2427236,0.2623291,0.6098205,0.2852049,-1.0488678,0.5660820,0.1580379,0.5068308,0.4827824,0.2724189,0.4458731,-0.1291876,0.6284805,0.3883505,0.1076132,0.2431093,0.4534523,-0.3546102
-0.0277214,0.7029635,0.0568483,0.2657707,-0.3240702,0.0654331,-0.0255383,-1.2282461,0.5483366,0.2969325,0.4696768,0.1612760,0.0691623,0.3508407,-0.4436962,0.3843538,0.1350278,0.2865910,0.0427136,0.3301233,-0.4678782
-0.1061354,0.6702753,-0.1145062,0.3338779,-0.6186022,-0.1058124,-0.1651472,-1.1509401,0.0190894,-0.1537530,0.3957152,-0.4226413,-0.2457084,0.0358358,-0.2699450,0.2898944,0.1004448,-0.1066974,-0.3179532,0.1273174,-0.4661807
0.0100030,0.6559475,-0.0186174,0.4310709,-0.1599285,0.6542427,-0.0932941,-1.1488475,-0.0462743,-0.3172917,0.2784719,-0.1058875,-0.1645254,0.0238356,-0.1519308,0.3872408,0.0234107,-0.0202524,-0.2808955,0.0633479,-0.3887163
0.0576796,0.5641401,0.2458329,0.4124641,-0.2119174,0.7492517,0.1633921,-1.1421187,0.2432159,-0.0677456,0.2569841,0.0566183,0.2272485,0.2846431,-0.2773826,0.2597906,0.0535461,0.3136923,0.0280826,0.0023852,-0.3812111
0.1141291,0.8300214,0.7072070,0.5761956,-0.1735708,0.9152638,0.2540581,-1.2261184,0.1030303,-0.2234020,0.0630039,0.1072934,0.4445154,0.3957332,0.2107051,0.4690496,0.1653326,0.6147740,0.4219566,0.2781760,-0.1459287
0.2206778,0.9925397,0.6989439,0.8344263,-0.0422770,1.1229672,0.3847999,-1.1713669,0.5535479,0.2048495,0.2609411,-0.0540509,0.6074789,0.4937392,0.4871014,0.5551292,0.3942176,0.5695402,0.5879160,0.5294367,-0.0444692
0.2005694,0.6946143,0.4425752,0.7934875,-0.3757352,1.1970534,0.4215476,-1.0412179,0.5860081,0.3615147,0.1436630,0.4695944,0.4658609,0.7094244,0.5615938,0.3507113,0.3444794,0.5411745,0.7934405,0.4565421,-0.1352959
0.0208065,0.6919323,0.3612044,0.6400329,-0.5573369,1.0620255,0.3283294,-1.1007444,0.2769192,-0.4065470,0.1841175,0.3334917,0.3186008,0.6678835,0.3313814,0.0132604,0.0581318,0.4716859,0.6597632,0.1947132,-0.2430833
-0.0759853,0.8680235,0.5516100,0.4275848,-0.5073311,1.0200109,0.1896253,-1.1794056,-0.1053321,-0.3030504,0.1426409,0.0307944,0.2350592,0.6321817,0.3228892,-0.2822384,0.0520016,0.2871924,0.3118074,0.0230168,-0.4282734
-0.1857984,0.7960040,0.5704368,0.1740608,-0.9017066,0.6365835,0.1714218,-1.4361345,-0.2008383,-0.4275558,0.0058495,0.0258997,0.3315010,0.4900634,-0.2016484,-0.4490070,-0.1753912,0.1121502,0.0372802,-0.2142047,-0.4962526
-0.1601338,0.8374039,0.2730310,0.2449518,-0.9531015,0.8470252,0.1822181,-1.4819238,-0.4421811,-0.6144965,-0.1030691,0.1217360,-0.0215313,0.4499716,-0.3595043,-0.3384519,-0.1075623,0.2103681,-0.0097255,-0.3291602,-0.5156688
-0.1513826,0.8718761,0.2046553,0.0609173,-0.7162730,0.9215813,0.0767708,-1.5186236,-0.4546969,-0.9777792,0.3279495,-0.0587801,-0.1075741,0.3743901,-0.5588350,0.1459733,0.1724986,0.2144342,-0.1440579,-0.0822618,-0.3459174
-0.1217241,0.7665497,0.3462499,0.0916776,-0.4078497,0.8806881,0.0802491,-1.6260452,-0.1093426,-0.5472148,0.6521264,0.1446396,0.3799655,0.4527548,-0.1955394,0.6608431,0.3159006,0.3533145,-0.0501651,0.2434926,-0.2423938
-0.2465008,0.6556247,0.4127038,0.1907818,-0.0664759,1.0078732,0.0963322,-1.6372722,-0.2410708,0.0318303,0.8386555,0.6110017,0.3811829,0.4349767,-0.0450848,1.2622113,0.9712002,0.5390841,0.4932514,0.7604555,0.0888574
-0.2242179,0.7310463,0.2971331,0.1880632,-0.1877395,1.6143773,0.3079649,-1.4554379,-0.1733160,0.4666595,1.1570539,0.4214946,0.5799064,0.5943468,0.3985031,1.7116342,1.3069221,1.0046641,0.9904744,1.3065476,0.5388470
-0.0994626,0.9723334,0.3569610,0.3728057,-0.4787021,1.4857397,0.3029541,-1.3867247,0.2075036,0.8761792,1.3012059,0.8720226,0.9338701,0.8449833,0.7461953,1.7222692,1.4161557,1.0563636,1.3080789,1.7690485,0.5792006
-0.0206305,0.9673331,0.5169746,0.6152412,0.0481284,0.8041103,0.3108186,-1.4042534,0.5782288,0.7023283,0.8870837,0.9702649,0.6096810,0.9224575,0.7759702,1.4553950,1.0519619,0.6727157,1.3014480,1.4052290,0.3986619
0.1713060,1.1345720,0.4418432,0.8473305,0.4825581,0.5660162,0.3090824,-1.1665311,1.0008993,0.3804981,0.5553506,0.4974723,0.0049108,0.6036518,0.6864179,1.3476409,0.6538728,0.5407917,1.0975773,0.8358405,0.0421424
0.1053226,1.1269454,0.3591263,0.8173649,0.5107907,0.6085031,-0.1000746,-1.1701915,1.0249856,0.8486992,0.5107199,0.2139809,-0.1007004,0.2942858,0.4880497,0.8519167,0.6305276,0.2806918,0.5831808,0.6034746,-0.1533854
0.0592690,1.0087417,0.1678289,0.7547507,0.0729086,0.4308359,0.0650196,-1.3175192,0.9464881,0.6310579,0.4764289,0.2012692,0.0683260,0.4066355,0.4250970,0.7342710,0.3644007,0.3271405,0.4456828,0.6377706,-0.2141712
-0.0165733,1.0415474,0.4060346,0.6999641,0.2393267,0.5185374,0.3118377,-1.2827051,0.8530606,0.3286014,0.2039421,0.1158320,0.1932499,0.4385500,0.4588045,0.8324422,0.5542232,0.4807596,0.5726246,0.7590859,-0.1968276
0.0600543,0.9488490,0.4582590,0.7266468,0.6468305,0.4220004,0.4709954,-1.1600710,1.0809649,0.1954689,0.4431270,0.2151322,0.1756251,0.4891032,0.5501652,1.0984119,0.6960167,0.8023344,0.7772120,0.7939600,-0.0197773
0.0620708,1.0504324,0.4961720,0.8295754,0.7272305,-0.0076517,0.7340398,-1.0269214,1.2814317,1.0269337,0.5878717,0.4769167,0.5861675,0.7230392,0.8248237,1.3772745,0.6274661,0.9923882,1.0907055,1.0976785,0.2118122
0.0839840,0.9547364,0.5881622,0.8370654,0.4055450,-0.0156303,0.7638062,-0.9086764,1.2663342,1.0278553,0.4417655,0.5548121,0.5910213,0.7594051,0.4790489,1.3733338,0.5842788,1.0463228,1.2034286,0.9325860,0.2403792
0.1106655,1.0634735,0.8175275,0.8997644,0.8724490,0.1886602,0.6524528,-0.8501174,1.1188877,0.7536222,0.1055183,0.2109937,0.3437535,0.7399402,0.4013513,0.9320000,0.2223965,0.7264382,0.8101767,0.5832712,0.0337299
0.1430510,1.2645102,0.6783671,0.7601038,0.8496882,0.3157657,0.7320653,-0.9814458,0.8617001,0.2046478,0.0944855,-0.2107687,0.2104171,0.5979282,0.2717589,0.5982344,-0.2411072,0.6107777,0.6659763,0.4076077,-0.1100556
0.2069386,1.1663023,1.1098987,0.8924691,0.4791308,0.3335736,0.8329413,-1.1527067,0.6781571,0.3610075,-0.2729636,0.0809192,0.2351330,0.7546532,0.3946863,0.5777227,-0.3199018,0.6283185,0.6819351,0.2592522,-0.1144144
0.1374722,1.2691826,0.9991906,1.0170083,0.4253921,0.8264245,0.9126343,-1.0175601,0.6939374,0.3930770,-0.2817349,0.0473671,0.1995782,0.6660488,0.5821539,0.7886373,-0.2106097,0.6392810,0.6238099,0.3950282,-0.0927392
0.2072286,1.2585052,0.9782583,0.8885165,0.3465730,0.6872616,0.6622483,-1.0226002,0.7262132,0.3404711,-0.2074481,-0.0423923,0.3668971,0.6462085,0.3300422,0.6443127,-0.0795636,0.5404183,0.4831294,0.5092525,-0.1158214
0.1422590,1.0272189,0.8423889,0.5546467,0.1544572,0.6202893,0.4863464,-1.3374150,0.2172021,0.1828605,-0.0387732,0.0983596,0.2583569,0.6110020,-0.3155907,0.3334188,0.1039990,0.3918509,-0.0179302,0.3839239,-0.2381417
-0.0282538,0.9107577,0.5872665,0.2401061,-0.3244965,0.5916256,0.4822967,-1.5672272,-0.2086288,-0.4944466,-0.0513275,0.2442944,0.3749688,0.3866291,-0.7127199,-0.0736920,0.0484654,0.3176530,-0.2012369,0.1356039,-0.2054743
-0.1418055,0.8817842,0.3416754,-0.1770341,-0.5612543,1.0679238,0.1876536,-1.6031003,-0.3767683,-0.4904737,0.1161451,-0.0099882,0.3485294,0.2250879,-0.9317745,0.0452100,0.2399651,0.2940587,-0.2744910,0.3872243,-0.2718289
-0.2024741,0.7842610,0.3165627,-0.0937826,-0.5497614,1.1549945,0.1215724,-1.6729147,-0.5158706,-0.7809781,0.0991548,0.0880995,0.2413554,0.2920679,-0.7405232,0.1450765,0.1217308,0.1942486,-0.2772024,0.2251817,-0.3245017
-0.1618756,0.6713269,-0.0323489,0.1267910,-0.7929309,0.5079052,0.1213078,-1.6830274,-0.4708890,-0.6070690,0.0740877,0.0934078,0.1271733,0.0589638,-0.5785917,0.0604419,-0.1034007,0.2262835,-0.3272495,0.3101319,-0.3488371
-0.2604718,0.5747625,0.1471084,0.0264767,-0.6444109,0.3448124,-0.1674680,-1.6840518,-0.5821844,-1.2671072,0.1160949,-0.0830454,-0.0251755,0.0560424,-0.7125692,0.4450889,0.0255675,0.2048398,-0.1394307,0.6269974,-0.2669643
-0.4298593,0.4721183,-0.1820112,-0.1800439,-0.4375424,0.1419080,-0.2934372,-1.8456641,-0.5707982,-1.1709946,0.3673157,0.0995871,0.0573268,-0.0410949,-0.6015221,0.4689341,0.0119731,0.1756384,0.1645182,0.6658217,-0.3314009
-0.4492488,0.3590941,-0.4517933,-0.0403088,-0.9523205,-0.0039437,-0.0628013,-1.9402089,-0.4540744,-0.9235797,0.0560807,0.3964397,-0.0383209,-0.0551221,-0.6726899,0.2350893,0.1774306,0.2934957,-0.0721052,0.4196787,-0.1806845
-0.3360894,0.4388213,-0.2931242,0.1723282,-0.0699902,-0.3185326,0.1194487,-1.6841222,0.0443408,-0.3308083,0.0406248,0.2118570,-0.0372993,-0.0002167,-0.0711870,0.4567718,0.4593692,0.5649577,0.3019851,0.7157100,0.0005374
-0.1819724,0.6424531,-0.1537596,0.2877456,-0.3742467,0.0192563,0.2760856,-1.4658718,0.4932955,-0.1977146,0.4537320,-0.0775399,0.1910336,0.1407825,-0.0066357,0.8952888,0.7430265,0.6283602,0.5059733,0.9360514,0.1875459
-0.1441932,0.5553795,0.0230883,0.5180435,-0.2834919,0.2032550,0.4072427,-1.3065133,0.9396510,0.2361193,0.6570559,0.3154680,0.2460558,0.2828659,0.2432603,0.9463068,0.6535501,0.6547705,0.6935137,1.0590345,0.1123765
-0.0977623,0.8190011,0.4179627,0.6450290,-0.1249509,0.2583007,0.3561893,-1.3345838,0.9075686,0.3971060,0.6575961,0.3761035,0.4153921,0.3182101,0.3572080,0.9184278,0.8978592,0.6556113,0.7354220,0.9694021,0.2435635
-0.0037647,0.8359003,0.2685054,0.6310939,0.1498803,0.3858057,0.1388757,-1.3203343,0.5189769,-0.0394496,0.7666737,0.1151719,0.6188954,0.3788959,0.5308945,0.7644082,0.9899280,0.7832067,0.6053850,0.9384304,0.2085741
-0.0626827,0.7908540,0.1655934,0.3300682,0.1895273,0.3321702,0.0076610,-1.3117776,0.5415124,0.1591313,0.6921243,0.4642508,0.2915173,0.3966199,0.0998296,0.6554510,0.7128388,0.4913747,0.3276165,0.8565291,-0.0649605
-0.1751935,0.6447768,0.0830347,0.3051533,-0.5636645,0.1863250,0.1878615,-1.3796327,0.7351930,0.2876883,0.6422852,0.8656061,0.3156258,0.2428149,-0.1023283,0.7429906,0.3779052,0.4129574,0.2685321,0.7872650,-0.0844192
-0.1705445,0.6289151,-0.1574119,0.2810124,-0.1941946,-0.4413172,0.1742280,-1.4421837,0.0002738,-0.7390258,0.5215937,0.3573984,0.2796362,0.2416334,-0.1592786,0.3252589,0.3016241,0.3096699,0.1470584,0.4827755,-0.1592011
-0.2049507,0.5601196,-0.1660049,0.2941442,-0.6020867,-0.0093796,0.0320115,-1.5986618,-0.3295551,-0.3269229,0.4121273,0.0425318,0.0573222,0.2332830,-0.1840869,0.2167099,0.1821292,0.2355069,0.2407512,0.2437397,-0.3916320
-0.1286821,0.6019058,-0.2840934,0.2943419,-0.6882834,0.4129003,0.0302711,-1.7208929,-0.2091822,-0.5581386,0.2759909,0.3079767,0.0493862,0.0931012,-0.2348638,0.1497755,-0.0906476,0.2940618,0.1116467,0.3935549,-0.3279591
-0.1069964,0.9176005,0.1187779,0.3956765,-0.2338005,0.6669174,0.2402834,-1.6025975,0.0154587,-0.5915853,0.2627599,0.1952104,0.0513961,0.1676740,-0.0603461,0.3075211,0.1202503,0.3608972,0.1541611,0.5188197,-0.1641639
0.0083384,0.9335699,0.5877947,0.3737370,-0.2190277,1.0872718,0.5526649,-1.4021000,0.3934619,-0.2881247,0.3260134,0.1637627,0.4143803,0.5118730,0.1489176,0.7008528,0.2954667,0.7116531,0.3809739,0.4698238,-0.0366819
0.0097829,0.8660682,0.8324736,0.4521701,-0.1549702,0.6019025,0.6182505,-1.3525536,0.5832567,0.1098957,0.1778449,0.5417264,0.6366645,0.5882877,0.1940410,0.9871681,0.5913491,0.6648039,0.6328366,0.5945092,0.0867252
-0.0003480,1.0750021,0.6959384,0.4893491,-0.0481924,0.5542582,0.4975444,-1.3091569,0.4704553,0.2096329,0.2699806,0.4472112,0.4875449,0.6169165,0.1919512,0.9793397,0.6186486,0.6173064,0.8000389,0.4251544,0.1258334
-0.1120464,0.9238676,0.4257251,0.3483067,0.0729085,0.7767665,0.5001419,-1.1743932,0.5718263,0.1671664,0.6480502,0.2952619,0.5478917,0.4582398,0.1426563,0.9186582,0.8057317,0.4375362,0.4310929,0.5140414,0.0322766
-0.1924871,0.7327564,0.3825920,0.4577852,-0.1222810,0.7988402,0.3859200,-1.4429330,0.4948654,0.3150840,0.2918341,0.5102334,0.3402892,0.4173431,-0.0642409,0.6679931,0.5202608,0.1658935,0.4065920,0.5123189,-0.1082815
-0.3483048,0.6425447,0.3531469,0.2095055,-0.4656597,1.0642506,0.0667192,-1.4572159,0.0770872,0.1032303,0.1396733,0.4259242,0.2071127,0.4041930,-0.4002343,0.3531171,0.2326568,0.1622329,0.2889444,0.4360441,-0.3108592
-0.3822007,0.8220976,-0.0480698,0.1638264,-0.4981630,0.7527748,-0.1114940,-1.5817909,-0.1333336,0.4620145,0.3133851,-0.1439302,0.2943939,-0.0590839,-0.3767334,0.1695819,0.2331766,0.0065450,0.2004603,0.2792580,-0.2102476
-0.2300037,0.7929573,-0.1697956,0.3039895,-0.1576011,0.8099241,-0.0400385,-1.5048125,0.3042766,-0.3632442,0.1031214,0.0646320,0.3356584,-0.0487036,-0.2038621,0.2869909,0.1761475,0.2184487,0.3758270,0.4581567,0.0960982
-0.1965658,0.6435020,0.0134043,0.1175416,-0.3712897,0.8359321,-0.0094187,-1.3540059,0.2653610,0.0009028,-0.0821645,0.5373418,0.2123416,0.0268699,-0.1076832,0.3961013,0.1399390,0.2526545,0.4714728,0.5765851,0.0688046
-0.2825762,0.5612917,0.0606336,0.0671000,-0.2709128,0.8810269,0.1321370,-1.5711133,0.0678702,-0.1862693,-0.2646158,0.0681252,0.0134366,-0.0348139,-0.2872164,0.3941797,0.2430317,0.2239736,0.4997543,0.3135838,0.0291993
-0.3392173,0.5490912,-0.0665876,0.0428123,-0.3344356,0.6272876,0.1548968,-1.5810955,0.1423102,-0.2684410,-0.1224036,-0.1986307,0.2514693,0.0914116,-0.4036200,0.4169233,0.4538511,0.4627226,0.2092127,0.3839256,0.2383565
-0.2813664,0.5265844,-0.0640614,0.1573956,-0.1200745,1.1554116,0.1124058,-1.5853548,0.0688428,-0.2031868,0.1306938,0.1507230,0.3802727,0.2383762,-0.1967342,0.3671471,0.4105733,0.6205880,-0.0266687,0.3048545,0.1875540
-0.2448164,0.5040033,0.2422098,0.0949573,-0.3884212,1.4346091,0.3053986,-1.5582997,-0.1896568,-0.5318924,0.1610756,0.3761798,0.2572504,0.3495955,-0.2159126,0.3593982,0.3061651,0.6192746,-0.0542498,0.1797007,0.0954431
-0.2352531,0.5876432,0.1536151,0.2532739,-0.5258645,0.8808051,0.2258534,-1.4695805,0.0790178,-0.3602565,0.3090689,0.3188610,0.0725801,0.3946251,-0.2378136,0.1019111,0.3519804,0.5499337,0.1821153,0.3356254,-0.0158922
-0.2756167,0.5286589,0.1937339,0.3290804,-0.6911985,1.1947210,0.2943177,-1.4610492,0.5264614,-0.1261634,0.2859856,0.2984241,0.1189181,0.2938062,-0.0952904,0.3456152,0.1741855,0.5886742,0.1488169,0.2481777,-0.1624238
-0.3267592,0.6407593,0.2043176,0.4854960,-0.5563908,1.1082486,0.5216687,-1.3647220,0.5677082,0.0209545,0.3886795,0.4252919,0.3187396,0.2747498,-0.1166774,0.4081489,0.2583878,0.6231079,0.1456450,0.3294310,-0.0988252
-0.1615733,0.7707599,0.1541415,0.3790565,-0.4230066,1.0634522,0.5536260,-1.2573172,0.4297994,-0.2568416,0.3580851,0.2715876,0.1055112,0.3253731,-0.0856802,0.3746976,0.3746609,0.6416414,0.2221669,0.4784833,-0.1165398
-0.2368177,0.5198203,-0.1337598,0.3006831,-0.4905687,1.4525307,0.3716516,-1.4378849,0.1050448,-0.0711512,0.1956070,0.4472964,0.2997844,0.4636108,0.1395412,0.5243509,0.6848306,0.5538501,0.1177622,0.6010164,-0.1061592
-0.3422124,0.4256011,-0.0299734,0.3794368,-0.8147847,0.7931550,0.1177884,-1.4655637,0.1910524,0.0708501,0.4260963,0.4096766,0.1422151,0.2502824,-0.2365557,0.8727041,0.4210924,0.3351571,0.1641458,0.5493999,-0.2015701
-0.2521288,0.5159652,-0.1612203,0.3143011,-0.4919840,0.5583287,0.0429734,-1.4294169,0.1779603,-0.2485191,0.5161251,0.2623360,-0.1543439,0.0160796,-0.3842155,0.5138602,0.3694163,0.1510545,0.1608646,0.4615410,-0.1527285
-0.2730384,0.5126069,-0.1767590,0.2288186,-0.6642244,0.6166968,-0.0564426,-1.4971313,0.4311357,-0.0957601,0.5812805,0.2694417,-0.2459874,-0.0297896,-0.3545392,0.7626236,0.2511649,0.0892430,0.0310265,0.4311877,-0.1726495
-0.3543303,0.2812286,-0.1117612,0.1367885,-0.6730840,0.5866787,-0.0916774,-1.5419097,0.1599720,-0.1496177,0.4051666,0.5826584,-0.0994660,-0.0246914,-0.4070662,0.4602880,0.0353706,0.1609525,0.0730046,0.2485567,-0.2985239
-0.3562225,0.3165221,-0.0523883,0.2146278,-0.9775410,-0.0191866,-0.0948721,-1.5762758,-0.2399173,-0.2659008,0.4164431,0.6943305,-0.2015450,-0.0037819,-0.4508956,0.3186117,0.1452697,0.2464420,0.0755297,0.4715125,-0.1329009
-0.2587170,0.4601145,-0.2933357,0.2622181,-0.7956659,0.2398835,0.1667080,-1.4292912,0.0664919,-0.4591660,0.2312022,0.2224610,0.0442564,-0.0528518,-0.1299077,0.4571851,0.4164148,0.4926153,0.3662737,0.5118163,-0.0506937
-0.3333092,0.4121427,0.1205352,0.2946144,-0.5204031,0.6696522,0.3486235,-1.5211631,0.4490530,0.2007305,0.0733094,0.4805528,0.0752223,0.1934417,-0.1589256,0.5102583,0.1834795,0.5808049,0.3350943,0.2217180,0.0272817
-0.3109831,0.3971262,-0.0144482,0.2805205,-0.6118823,0.7147574,0.3673064,-1.3785481,0.5295166,0.1593459,-0.1181008,0.5594649,0.0904489,0.3077475,0.2596983,0.5281853,0.2380122,0.6390100,0.5255097,0.5256190,0.1358123
-0.2264615,0.5064729,0.1543783,0.3670109,-0.4475494,0.8992439,0.3112889,-1.1101888,0.6534786,0.1280492,-0.1608729,0.1770931,0.3085743,0.5051516,0.0136703,0.5102128,0.5817409,0.5192091,0.5254664,0.6382224,0.2251520
-0.2622369,0.5826172,0.0194500,0.3756254,-0.2905010,0.9906496,0.2661383,-1.1355211,0.3978865,0.4675142,0.0377447,-0.0798933,0.3203052,0.3903221,0.0012681,0.6913571,0.6314380,0.8446270,0.4827443,0.8781699,0.2618464
-0.2545433,0.4330088,0.0905739,0.3048213,-0.1495617,0.4809863,0.4135703,-1.3912796,0.3504848,0.5215108,0.2401933,0.7991622,0.5073264,0.4488353,-0.1345052,0.7354812,0.6560514,1.0586611,0.5152752,1.0930068,0.3876058
-0.1401783,0.5113779,0.0467185,0.2651085,-0.3894228,0.2943433,0.4307370,-1.3290586,0.5280548,0.3606849,0.5299122,0.3271492,0.3891917,0.4760601,-0.0033517,0.7180684,0.7345572,0.9316431,0.7316873,1.3038675,0.3750719
-0.1357326,0.6884147,0.2540419,0.4803880,-0.6324554,0.5708969,0.4916133,-1.3237334,0.5807341,0.1439255,0.3175666,-0.4569490,0.3900249,0.5606747,-0.1415985,0.7208105,0.7893021,0.9290445,0.5547295,1.1227146,0.1811074
-0.1471414,0.7390871,0.1225854,0.2759233,-0.1200268,0.5751850,0.3313411,-1.4878763,0.4680486,0.2929577,0.1072735,0.0791824,0.2902244,0.5719832,-0.1084799,0.6239610,0.6078877,0.9966897,0.4379882,0.7958164,0.2973691
-0.0884133,0.5177742,0.0867341,0.4085351,-0.1342364,0.2222040,0.2915133,-1.4196513,0.4858699,0.6637840,0.2152673,0.1100013,0.3053401,0.5952155,0.1758652,0.9430969,0.5391833,0.9485141,0.6803757,0.9110236,0.3835716
0.0184138,0.7547454,0.2924480,0.4942944,-0.0896941,1.0731516,0.4397300,-1.1862757,0.7506469,1.0076013,0.0152923,0.0551622,0.5273454,0.6413608,0.2722200,1.1429995,0.4321688,0.8377741,0.7631566,1.2359806,0.4846992
0.0005474,0.9450530,0.8042179,0.5874220,-0.3580511,1.2336140,0.6585105,-1.0648047,0.9551208,1.2150359,0.0219275,0.1509554,0.7874848,0.9413860,0.3628968,1.1669699,0.4313391,1.0801198,0.6135265,1.2992257,0.5592584
-0.0378647,0.8683329,0.9851092,0.8756840,-0.2815949,0.8851080,0.6046090,-1.0083716,1.1228092,1.1506314,0.1929879,0.7573439,0.4711995,0.9141635,0.2623600,1.0928372,0.3340617,1.0225517,0.6593025,0.9940841,0.2983788
-0.0223551,0.8644518,0.8087375,0.7993328,-0.3384368,0.5286279,0.8238852,-0.8981051,0.7939856,0.6134264,0.1764443,0.5727751,0.5263224,1.0269895,0.2353845,1.1220510,0.4096831,1.1201761,0.6394921,0.7800361,0.2706271
0.0310234,0.8238171,0.8433210,0.7249829,0.0421581,1.2212116,0.9406850,-1.0503043,0.8996610,0.5997075,0.2405190,0.4181309,0.8050460,1.0349139,0.1733254,0.9395818,0.6824761,1.1539344,0.6154811,0.8163905,0.3451085
-0.0382274,0.5824315,0.7869219,0.7661391,-0.0973064,0.8358424,0.9914176,-1.1108482,1.0222324,0.8477516,0.2265321,0.4978479,0.7334783,1.1046796,0.2390361,0.9003153,0.6445268,1.2505354,0.6548110,1.0803547,0.4580921
0.0055193,0.5645708,0.6233218,0.8420173,0.2463705,0.2994862,0.9884392,-0.8855946,1.4205332,1.0981730,0.5013162,0.4985773,0.6748440,1.1726084,0.4354326,1.3639519,0.6218030,1.3153921,0.9261312,1.1208429,0.6857427
-0.0268189,0.6266057,0.5690238,0.7922814,0.3630442,0.3781464,0.9142172,-0.8890682,1.5414704,0.9433949,0.5464530,0.1626072,0.8405311,1.2464542,0.4047092,1.6522106,0.8827016,1.3902754,1.0004150,1.3153422,0.6684753
-0.0381258,0.6004096,0.6645820,0.6549538,-0.0412450,0.5531415,0.8899605,-1.0464110,1.5622500,1.2297883,0.4572777,0.6465451,1.0180244,1.2245065,0.3821951,1.5623140,0.9582513,1.5232426,1.0816922,1.3302855,0.7425181
0.0068820,0.5229485,0.5529792,0.6966774,-0.1218918,0.7742147,0.9775431,-0.9579710,1.4459951,1.0871626,0.4792874,0.5943550,0.6988619,1.0771506,0.4105900,1.6276166,0.7224967,1.3697269,1.2110100,1.3170111,0.8150193
-0.0629339,0.7168245,0.3592542,0.7138174,-0.4878010,0.5795082,0.9657462,-0.9736183,1.2170292,0.5362628,0.4781813,0.3566445,0.4782170,1.1729620,0.3389495,1.4222479,0.6955262,1.0831801,0.9489400,0.9696382,0.6448353
-0.1756337,0.7281275,0.2707745,0.5336319,-0.8230582,0.7882535,0.7567288,-1.0990839,0.9839808,-0.1350936,0.2418054,0.4779664,0.3589142,0.8240808,-0.2788445,0.4851704,0.3253194,0.8369721,0.4748883,0.4353527,0.2332609
-0.1481494,0.5250641,0.3608091,0.2996300,-0.8946545,0.2429142,0.6085863,-1.3697754,0.5045277,-0.4166475,-0.0950591,0.3689341,0.1512740,0.6012133,-0.6131445,0.1088841,0.0199901,0.8379163,0.1015208,0.1648266,-0.0284238
-0.2008517,0.5570460,-0.0656582,0.4408162,-0.3929560,0.2244185,0.4748810,-1.3464170,0.1390988,-0.2019328,-0.1124979,-0.1563386,-0.0913108,0.3090329,-0.8044958,-0.0973429,-0.0044607,0.5480458,-0.2644410,-0.0904258,-0.1981691
-0.1416406,0.7450347,-0.1686687,0.2372831,-0.4816688,0.1644406,0.2584442,-1.4132675,0.0241222,-0.3858037,-0.2495794,-0.3607340,-0.3780973,0.0851727,-0.9430559,-0.0096115,-0.0292277,0.3184218,-0.4930920,-0.1708450,-0.2822610
-0.1273039,0.5967469,-0.1797461,0.2281664,-0.6699675,-0.6873777,0.2874654,-1.5711228,0.1469981,-0.1230752,-0.2658258,-0.2448992,-0.3315662,0.1830502,-0.7619062,0.2349410,-0.3222730,0.2645948,-0.3492402,-0.3486367,-0.4414026
-0.0911183,0.4725329,-0.2818539,0.4627232,-0.5652366,-0.3024653,0.1695733,-1.4561471,0.0236352,-0.3249656,-0.5142789,-0.3430640,-0.4714561,0.2128911,-0.6521766,0.3814096,-0.2812374,0.1896508,-0.2610763,-0.4215098,-0.4523412
-0.1573633,0.7136610,-0.3597474,0.4650616,-0.3119017,0.3171450,0.0033072,-1.4350014,0.3742384,-0.3387000,-0.1008401,-0.5907680,-0.4005358,0.1650367,-0.5975545,0.6160997,0.1124949,0.0780668,-0.1452624,-0.0958506,-0.4042983
-0.1636416,0.6187093,0.0612028,0.3809278,-0.4604982,0.4707848,0.1413052,-1.3925830,0.7742526,0.3563845,0.1975011,-0.2539398,-0.2739428,0.1922260,-0.5498002,0.5407891,-0.0341722,0.2819883,0.1541695,0.2301032,-0.2865390
-0.1020023,0.7035192,0.2034984,0.5342119,-0.0575922,0.3096998,0.4193598,-1.1944290,0.8683798,0.5729435,0.0002085,0.0890965,-0.0419370,0.3077985,-0.4746245,0.4102510,0.1755449,0.4571989,0.2389291,0.2484470,-0.1473880
-0.0191774,0.7902411,0.1864052,0.4337554,0.2179564,0.2637740,0.5606920,-1.0793401,0.9443240,0.4970315,0.0511243,-0.1723702,0.1370071,0.3096750,-0.0888239,0.8731853,0.4082940,0.5152530,0.6150603,0.5023863,-0.0507505
-0.0127898,0.7333483,0.4336192,0.5253403,0.4681293,0.6386334,0.5242220,-1.0252985,1.1130098,0.8150847,0.1574277,0.1637687,0.0761583,0.3617082,0.3460224,0.9881691,0.3473239,0.5936156,0.7323043,0.5460621,0.1470666
-0.0004732,0.8606263,0.2738968,0.9168632,-0.0532878,0.6845049,0.6173081,-0.9967476,1.1724043,1.2902449,0.1122902,0.6674263,0.1813273,0.4808107,0.5843902,1.0474446,0.2740360,0.7239816,0.6004518,0.5149362,0.2287033
0.1131165,0.8974810,0.2089531,0.9933466,0.2253404,0.7610586,0.6543055,-0.7716426,1.3231680,1.6088716,0.2295353,0.4710192,0.2265887,0.4544828,0.9245729,1.0527415,0.4301012,0.9869935,0.7919319,0.5909894,0.3862171
0.0659212,0.9425802,0.4878751,0.8756080,0.1084347,0.9678845,0.2843152,-0.7885689,1.4486084,1.5979337,0.2490032,0.4163096,0.2139475,0.5494152,0.7127429,1.3892883,0.5361021,0.7710481,0.9262455,0.5998345,0.3238468
-0.0175794,0.8125651,0.1515635,0.5999629,-0.0053517,0.1810019,0.1218775,-0.9807975,1.5363874,1.2829068,0.2045254,0.6019723,0.2052396,0.4016924,0.3636504,1.0954776,0.3905114,0.6388039,0.7353670,0.5657089,0.3585023
-0.1047956,0.7167349,-0.3078096,0.3586771,-0.3297600,0.5170525,0.0663902,-1.1072348,1.0124762,0.8547804,-0.0156278,0.4460726,0.2219459,0.2894366,0.0878439,1.1515992,0.3083296,0.7381827,0.7919678,0.7475885,0.2989911
-0.1913055,0.6132226,-0.2996551,0.1855173,-0.2811986,0.5455103,-0.1383580,-1.2510408,0.6737493,0.7508918,0.0055672,-0.1776920,-0.1270066,0.1563105,-0.5062056,0.8178588,0.3105008,0.3397363,0.5925682,0.5064025,0.1531968
-0.3642294,0.4291669,-0.5577695,-0.3727545,-0.4365952,0.0339015,-0.2127317,-1.3994550,0.2793386,0.7855340,0.0341327,0.0543357,-0.2732475,-0.0165999,-0.6670482,0.7777445,0.3080637,0.3532972,0.2965488,0.5660990,0.1677374
-0.2986721,0.4891828,-0.3671227,-0.3875759,-0.3947701,0.1386927,0.0123038,-1.4920070,0.3950894,0.9986620,0.3234749,0.2900276,-0.2558852,-0.0116860,-0.3096308,0.9978400,0.4644090,0.3698963,0.5525018,0.5618687,0.2893438
-0.2842221,0.5072405,-0.6396229,-0.1116664,-0.2425514,-0.0711949,-0.2634957,-1.3847386,0.3989172,0.8618183,0.1648918,-0.2606859,-0.4401174,-0.0339643,-0.1094579,1.0527798,0.4215509,0.2833290,0.6863520,0.6374515,0.2604551
-0.2145523,0.4677566,-0.6484796,0.0572418,0.0083238,-0.3423350,-0.2410114,-1.4489071,0.5084953,0.5796252,-0.0115156,-0.0752090,-0.3454779,0.0521894,0.2827267,1.2409358,0.4100618,0.4171438,0.6934424,0.5192450,0.2247754
-0.2006040,0.4002756,-0.4251634,0.2212812,-0.0128478,-0.1415888,0.0765946,-1.3281884,0.9410515,0.9174672,0.0828886,0.3350652,-0.0862996,0.2872952,0.3492449,1.3909607,0.7185063,0.6599177,0.8278624,0.8180953,0.3793745
-0.1014732,0.5363374,-0.1943886,0.4451775,-0.1471209,0.5710352,0.2885259,-1.1336554,1.3082390,0.9323473,0.2470938,0.2670844,0.3437497,0.5940033,0.3520662,1.3645555,0.6757862,0.8808622,1.0043478,0.8826575,0.4462580
-0.1041079,0.5720081,0.0051089,0.4775370,-0.2822731,0.7627461,0.4487572,-1.0674648,1.2498050,0.5353009,0.1559587,-0.0467622,0.4346719,0.7539622,0.4854023,1.2805094,0.6428660,0.9094208,0.7245108,0.7059226,0.5095484
-0.0598972,0.7621113,0.3553478,0.4798719,-0.2154333,0.6881183,0.6448367,-1.1490165,1.2033981,0.9841936,0.1209085,0.1202772,0.5824882,0.7811097,0.6640665,1.8072445,0.5343840,0.9412442,0.8921847,0.7839207,0.3546799
-0.1922483,0.8927359,0.4784846,0.5881701,-0.5220387,0.9604315,0.8157002,-1.0371450,1.1808528,1.3662983,0.2120648,0.0990005,0.5504827,0.8214177,0.5229224,1.7200465,0.7751656,0.9778882,1.0522357,0.7384978,0.4491683
-0.1669795,0.8843455,0.3637724,0.2092772,-0.5488734,1.0314207,0.6131887,-1.0107085,1.3184485,0.9300472,0.0347609,0.1519945,0.6719544,0.8739821,0.3836413,1.6145241,0.8707958,0.8310035,0.8806216,0.6987605,0.4342216
-0.1397497,0.5830575,0.3420660,0.2249493,-0.6654536,1.2852268,0.6503824,-1.1958876,1.2265612,0.6441454,0.1114370,0.4666335,0.4586886,0.8424082,0.1951444,1.1634563,0.7087091,0.7628941,0.7779450,0.5594803,0.2954303
-0.2273411,0.4862868,0.3852022,0.3436578,-0.8148624,0.9863361,0.5156813,-1.3001947,0.9224110,0.5120627,-0.0981878,0.3640240,0.3322261,0.7680748,-0.1180818,0.9018843,0.6817092,0.7024549,0.6896983,0.6647750,0.1354350
-0.1714173,0.6407430,0.2003515,0.1050659,-0.5730869,0.7593393,0.5430712,-1.3005207,0.9754047,0.6442946,-0.0057206,-0.0605716,0.4027881,0.7784191,-0.2320101,0.8222838,0.6544272,0.7910547,0.6246715,0.6067054,0.1726691
-0.2512264,0.6422407,0.1428015,0.1206763,-0.4937139,1.0409381,0.5128716,-1.2841933,0.8709680,0.6192254,-0.1299283,0.1137530,0.4092333,0.6493121,0.1740925,0.5508538,0.3858816,0.6054803,0.3717287,0.3681431,0.2110234
-0.2461070,0.5777109,0.1714359,0.0174729,-0.2029915,1.0568149,0.4675556,-1.3072491,0.5359827,0.4223032,-0.1032961,0.5313985,0.1269160,0.8409007,0.0327767,0.4817993,0.2620797,0.7611824,0.1365619,0.2753832,0.2919087
-0.1452386,0.6756794,0.3139118,0.2680016,-0.2541700,1.1964325,0.6344804,-1.3932347,0.8781708,0.5764838,-0.0194168,0.2694952,0.3730159,0.9322913,0.1595442,0.6415644,0.5473411,0.8944407,0.5113754,0.8065751,0.2921683
-0.0604676,0.9168075,0.3111938,0.3618937,0.0328176,1.4659590,0.5947124,-1.2652507,0.9494950,0.6378232,-0.0836494,0.2598076,0.5653668,0.9565642,0.3326413,0.8785993,0.5830634,0.7961565,0.5908778,0.6577584,0.3383494
-0.0308738,0.8837624,0.4840792,0.4877103,0.2689358,1.6137892,0.6312494,-1.2420672,1.0224451,0.6012853,-0.2145450,0.5382708,0.4565071,0.8993992,0.5442880,1.1534476,0.3963896,0.8746666,0.6593956,1.0224929,0.5211521
0.0680460,1.0330915,0.7127702,0.6430229,0.5057848,1.6738409,0.7561275,-1.0045053,1.5626444,0.6812113,-0.0119658,0.5063841,0.5293363,0.9650784,0.7626243,1.2246344,0.5770206,0.9020276,0.9762380,1.0291041,0.5531605
0.2078635,1.2162919,0.9446219,0.6773229,0.1912481,2.0781269,0.4930310,-0.7645369,1.8517320,1.2569993,0.0667256,0.3116170,0.5024379,0.9781021,0.4972670,1.0873749,0.5108004,0.6877795,0.8906762,0.9628211,0.3937232
0.1226361,0.9156961,0.6606976,0.5224402,0.0628241,1.2399739,0.1329317,-0.8483821,1.3659505,1.2336628,0.0250430,0.2742172,0.3763357,0.8421605,0.2170291,1.0520258,0.3342761,0.4146026,0.5714895,0.7585914,0.3178484
0.1435245,0.8193509,0.2185186,0.4661864,-0.1224764,0.4775719,0.2002126,-1.0959250,1.0692031,0.2809394,-0.0535661,0.3531916,0.3626061,0.5679786,0.3832377,0.7355483,0.2994924,0.4184625,0.5719608,0.5554454,0.2351739
0.1720264,0.9758137,0.3241800,0.7122477,0.0668798,0.8041493,0.3449098,-1.1634278,0.6532872,0.1723030,-0.1244365,-0.0556048,0.3387584,0.6541267,0.1152542,0.5183663,0.1838814,0.4188300,0.5715348,0.4058710,0.0665746
0.1714139,0.9581162,0.3310850,0.4753703,0.2206088,0.9766794,0.2543415,-1.3539579,0.7128667,0.3680393,-0.1831785,-0.1840396,-0.0050849,0.4230457,0.0097327,0.2783169,0.1061694,0.3266200,0.2064850,0.3524222,0.0524657
0.2756330,0.8780186,0.4117438,0.2257003,-0.2027786,0.6053460,0.4031149,-1.4220663,0.6401526,0.5078158,-0.3461979,0.1697088,0.0371329,0.4289033,0.0186190,-0.0994927,0.0373292,0.3254460,0.0500106,0.3076027,0.1437892
0.3530917,1.0926853,0.6064420,0.4419443,0.0221234,0.7746035,0.6417421,-1.1099379,0.7108637,0.9855421,-0.0406885,-0.2039614,0.2655245,0.6403467,-0.1519953,0.4835498,0.2452052,0.4819270,0.1902847,0.3583546,0.2788491
0.3988011,1.0722501,0.6958447,0.1969771,0.3770211,1.2057570,0.6649356,-0.9993088,1.1667365,1.3673832,0.0253320,-0.0646417,0.2686982,0.6714028,-0.0587823,0.8416290,0.5937126,0.7166806,0.3112188,0.7093328,0.2820854
0.5995269,1.0462341,0.8084838,0.6940378,0.5133539,1.7868255,0.7198173,-0.8685046,1.4971874,1.3886580,0.2950294,0.4616500,0.5078177,0.8628350,0.4339021,1.2474213,0.8756480,1.1126758,0.8071585,0.9327005,0.4710932
0.5892807,0.9411175,1.0602074,0.9302248,0.7442096,1.9726492,0.9411124,-0.4955636,1.8755691,1.4460663,0.5883275,0.8201388,0.6180038,1.2035314,0.7891927,1.8798909,1.2172812,1.3833088,1.2018280,1.1170175,0.7233480
0.5082807,1.1034981,0.8738602,0.7396256,0.7349232,1.8446356,0.9142818,-0.4650761,1.6038628,2.1743059,0.7217414,1.0043274,1.0213159,1.4014728,0.8097528,1.6572104,1.2741803,1.2616154,1.5070843,1.4525198,0.7922598
0.4424767,1.0653864,1.0417765,0.6838903,0.6634428,1.3732697,0.9917157,-0.7754233,1.5926563,2.1588893,0.5640383,1.0795705,1.0053769,1.4419330,0.5240578,1.1919634,1.1700435,1.3445721,1.0758772,1.3705002,0.7495224
0.4767444,0.8489490,0.9157962,0.7859079,0.3366666,1.1546258,1.2018253,-0.7956533,1.2820070,1.5791677,0.3292983,0.9561675,0.9337556,1.5251806,0.3075400,1.1131197,0.9728650,1.3456997,0.9054580,1.1881926,0.5640907
0.3569655,0.7778537,0.8904020,0.4575410,0.0771030,1.5137539,1.1769221,-0.8009245,0.9936310,0.7548678,0.3043347,0.8329545,0.8018273,1.3558505,0.2328265,1.0817930,0.8145291,0.9967310,0.7141038,0.8882183,0.3812299
0.2717840,0.7737010,1.1297494,0.3090650,-0.2871417,1.5900450,1.0456612,-1.0306492,0.9882641,0.7115079,0.0621377,0.7037133,0.6248221,1.2077043,0.1584592,0.5155584,0.5028305,0.8325976,0.4013683,0.6336328,0.3510047
0.2755273,0.7978703,1.2541567,0.2570588,-0.2823919,1.3535544,0.6959712,-1.0279785,0.6459447,0.2241015,-0.2699076,0.6428103,0.4201468,1.0963103,-0.3292382,0.3190354,0.3802757,0.8347736,0.1975229,0.6000279,0.1347671
0.3661325,1.0360208,1.1544175,0.3389406,0.0333291,1.7042953,0.6236947,-0.7867125,0.6583633,0.0446281,-0.2114861,0.4202466,0.3023071,0.9528373,0.1929098,0.6806092,0.4523823,0.8019890,0.2829898,0.5974498,0.2789808
0.3627916,0.9535004,1.1778719,0.2752276,0.5533582,2.0195377,0.5975551,-0.7379212,1.1395042,0.8001649,0.0537156,0.5169906,0.5412788,0.9361332,0.3496803,0.8811592,0.4807250,0.5963262,0.5211608,0.7985460,0.3073777
0.3601671,0.9166848,1.2268487,0.0520485,0.2922941,1.8064849,0.7188240,-0.9236820,0.8249734,0.8627036,-0.1394769,0.7035428,0.4467922,1.0098357,-0.0049535,0.5355899,0.4819449,0.7284766,0.4015635,0.7648180,0.2802035
0.4103656,1.0283318,1.2476087,0.2208126,-0.0987038,1.2680925,0.7933722,-0.9431229,0.3815754,0.3152708,-0.3746316,0.4158725,0.3340949,1.0211585,-0.4294840,0.2058414,0.3231149,0.6526991,0.4876345,0.3878168,0.1838907
0.4830233,1.0956111,1.3820008,0.0675327,0.3711934,1.3213737,0.6321166,-1.1464177,0.2849646,0.0641979,-0.4180692,0.0183737,0.2806965,0.8589402,-0.5697669,0.2596865,-0.0389694,0.4277478,0.3870325,0.2524541,0.0281561
0.4231434,0.8114564,1.0436903,0.0333409,0.1329812,1.1325835,0.4775843,-1.0158463,0.5294598,-0.3522355,-0.4798436,0.1263512,0.0538917,0.6934954,-0.8260372,0.1077125,0.0245305,0.2996895,0.1966533,0.2625008,-0.1314053
0.3671718,0.9835781,1.1759027,0.0087374,-0.1345805,0.6651441,0.4443664,-0.9105750,0.1808772,-0.3927710,-0.7399619,0.0738332,-0.0952694,0.5894548,-0.8678944,-0.0492838,-0.0100603,0.1858366,0.0810475,-0.0221937,-0.3964550
0.4849435,1.1263536,1.0072786,-0.0316543,0.3915064,1.0567528,0.3420500,-0.8775431,0.0906696,-0.7211388,-0.7319994,-0.4824471,-0.3181752,0.3868495,-0.6781639,-0.4247053,-0.1986088,-0.0057154,-0.3202364,-0.1591007,-0.4534115
0.4588070,1.1002566,1.0147638,0.2067342,0.2366818,0.7232466,0.2776640,-0.9102517,0.0956926,-0.4653562,-0.8119703,-0.2653576,-0.1606328,0.2677026,-0.8195957,-0.2986772,-0.2599234,-0.0231048,-0.5049994,-0.2006207,-0.3607801
0.3879186,1.1670828,0.9891336,0.1262993,0.6165503,0.9651684,0.2240161,-1.0226963,0.4867786,-0.1787637,-0.8543065,-0.2218343,-0.3098953,0.5190036,-0.6089894,-0.4005301,-0.3771298,0.0703953,-0.4862938,-0.0514735,-0.3453058
0.5345501,1.3082846,0.8185959,0.3099341,0.7081509,0.7050007,0.3651481,-1.0049355,0.5593613,-0.5879747,-0.8799765,-0.6315156,-0.2681301,0.5819529,-0.5715953,-0.3545982,-0.2893089,0.2036546,-0.4455704,-0.1403930,-0.3797646
0.4958741,1.0985632,0.9290353,0.4288913,0.2474374,1.1840409,0.5499727,-1.0419161,0.3688249,-0.7943701,-1.0493484,-0.5956841,0.0437229,0.6124159,-0.5302726,-0.1310568,-0.2249848,0.2661535,-0.4427882,-0.2024695,-0.4094554
0.4982646,1.0004107,0.9792573,0.2988249,-0.1779239,1.0302128,0.4988143,-1.0661864,0.4910638,-0.0289203,-0.7715519,-0.0084888,-0.0785606,0.6496873,-0.4626434,0.1018453,-0.1336053,0.1955478,-0.2123437,-0.1217665,-0.2064004
0.4760216,0.9772552,0.7639412,0.3850857,0.4713430,0.6893356,0.5768380,-0.5662590,0.8697213,0.3702844,-0.6764333,0.2181005,0.0515864,0.5874430,-0.0164078,0.3019328,-0.0707025,0.3532722,0.1931241,0.0536143,-0.1873591
0.4520898,0.9961699,0.5865214,0.5332891,0.8866275,0.6190979,0.4126741,-0.4539554,1.1101673,0.8853950,-0.5550805,-0.1369402,0.1330577,0.5549433,0.1104116,0.2535138,-0.2181544,0.3093282,0.2717695,0.0626317,-0.1418793
0.3895586,1.1002910,0.5906417,0.5309901,0.7281982,0.5030568,0.2603890,-0.7381131,1.1531172,0.9052932,-0.5085183,-0.0550998,0.0937926,0.6147288,0.1715023,0.0570064,-0.4169997,0.1685025,0.2128602,0.1227164,-0.2166121
0.3668496,0.8202783,0.4201041,0.4260113,0.3706606,0.3890958,0.3884947,-0.7151122,0.9204448,0.6177205,-0.6328132,-0.0840479,-0.1730557,0.6131175,-0.3256400,-0.3447395,-0.4087025,0.0533691,0.0640503,-0.1129514,-0.3812806
0.4485340,0.6441888,0.4948615,0.2814329,0.6972578,1.0489603,0.2641432,-0.9610987,0.5730060,-0.1551651,-0.5255288,-0.4525853,-0.1048922,0.4349473,-0.4841720,-0.2239171,-0.3586827,-0.0484180,-0.1086467,-0.3436007,-0.5777836
0.3847390,0.7230021,0.3195485,0.1150743,0.8695087,0.5591132,-0.0389450,-0.9920233,0.7185928,-0.0323406,-0.7179532,-0.1610604,-0.0903775,0.3413579,-0.6742878,-0.3282972,-0.4187807,-0.1048669,-0.3094557,-0.2790101,-0.6825907
0.2900487,0.7504855,0.1292601,0.0553465,0.6869751,0.0561147,0.0304190,-0.8934756,0.6326824,-0.0229021,-0.8238469,-0.2140679,-0.3034232,0.2611869,-0.5147862,-0.3020634,-0.6231905,-0.1740494,-0.4665538,-0.3210187,-0.5910758
0.3339055,0.7550251,0.3006081,0.2365129,0.7227751,0.1150527,0.3927576,-0.8535904,0.6212484,0.2044674,-0.9134924,-0.4754676,-0.1385480,0.4712228,-0.2820401,-0.0956736,-0.4339555,0.0877842,0.0571124,0.1784957,-0.2882173
0.3700430,0.9113771,0.4402633,0.2394505,0.8691279,0.6724008,0.3006189,-0.8750365,0.8843451,0.9511067,-0.7907685,-0.1141346,0.0729563,0.6954247,-0.0653897,0.3446118,-0.1192887,0.2988734,0.3473369,0.2404101,-0.1663072
0.3379245,0.8480506,0.2858542,0.3586014,0.9999823,0.6612111,0.3368265,-0.9482886,0.9752148,0.7663969,-0.7615615,0.4050101,0.1515857,0.7557251,0.1664364,0.2242274,-0.0161267,0.4363057,0.3850418,0.2775081,-0.0863810
0.3658292,0.7951676,0.3469821,0.5600927,1.1691985,0.7232743,0.3636530,-0.8374225,0.9132441,0.7837371,-0.5809608,0.0880653,-0.1113121,0.7892963,0.4022066,0.5956331,0.1993151,0.6394517,0.6976692,0.4067256,0.1041426
0.3543592,0.9832097,0.4326425,0.4218928,1.0068582,1.2591730,0.2235268,-0.7442970,1.2434009,1.0830632,-0.2577054,0.1380252,0.0718786,0.7081177,0.2577467,0.4515236,0.1769582,0.4932042,0.5990365,0.3739316,0.0208972
0.2714892,0.8442180,0.4574197,0.3903163,1.1455135,0.9992427,0.2455898,-0.7977641,1.2547948,0.7070951,-0.1182847,0.3922677,0.2840945,0.7102700,0.2400765,0.4726059,0.2569807,0.3675249,0.5124866,0.3187934,-0.0928551
0.3560842,0.9542557,0.4098459,0.4862146,0.6853769,0.7378245,0.5440454,-0.6790587,1.3314160,0.4056284,-0.1703347,0.2728527,0.2583858,0.8486797,0.4424972,0.5173237,0.1351906,0.4997489,0.4152605,0.2526791,0.0558155
0.4127847,1.0967993,0.5857275,0.3964249,1.3582408,0.9241722,0.5551140,-0.5107952,1.4849210,0.3960849,-0.2008190,-0.0238994,0.5158143,0.8367425,0.4706545,0.6143328,0.2429652,0.6176854,0.7062854,0.3184610,0.1812162
0.2748259,0.8799664,0.7536070,0.3375789,1.2037374,0.7987426,0.4217957,-0.8120351,1.3795334,0.3153982,-0.1751417,0.2178682,0.2209983,0.8305100,0.3468795,0.5246124,0.0519679,0.7009956,0.6558795,0.4350872,-0.0091887
0.1846293,0.8045424,0.4505417,0.1806948,0.7472527,0.2258720,0.3500919,-0.9372728,1.1325881,0.7274557,-0.1318213,0.0586212,0.0899821,0.8080535,0.1666230,0.2055200,-0.0860947,0.4811110,0.5508179,0.3543760,0.0155987
0.1310871,0.6521135,0.1661941,0.1738600,0.2695902,0.1505855,0.2705103,-1.0007652,0.6823294,0.0639831,-0.3531065,-0.4693594,0.0495214,0.5409256,0.0054891,-0.0089566,-0.2340712,0.1184317,0.3839063,0.0446844,-0.2203952
0.0697585,0.5814093,0.2938021,-0.1577854,0.2843192,0.6800298,0.1392382,-1.2087908,0.3971388,-0.6201946,-0.5283327,-0.2629144,-0.2184416,0.4809746,-0.2701765,-0.1364291,-0.1768831,0.1375435,0.1509244,0.0947557,-0.1487900
-0.0118045,0.4986694,0.3083380,-0.0028261,0.2481557,0.5440058,0.2447818,-1.2946461,0.3156759,-0.5658941,-0.6584654,0.0495380,-0.0759991,0.4272695,-0.1905843,-0.2829899,-0.1342440,0.2995082,0.1150064,0.0797931,-0.0150570
-0.0722659,0.3406231,0.0330806,0.1224968,0.2494837,0.8495699,0.4169240,-1.1014295,0.4669020,-0.8692513,-0.7728975,0.1184065,0.0142283,0.4755617,0.2457325,0.2155100,0.1325641,0.4021604,0.3574457,0.1732186,-0.0449324
-0.0221785,0.4412675,0.0722555,0.0608556,0.1401974,0.5860462,0.4100569,-1.0093189,0.8278322,-0.4720067,-0.5541272,0.0619063,0.1864635,0.5151571,0.2110989,0.3809205,-0.0139701,0.3935039,0.6124620,0.3187914,0.0056700
0.0210981,0.1812756,0.2814183,-0.1094482,0.6202072,0.6255394,0.1283745,-1.2709413,0.8641310,0.1643016,-0.5094045,0.3885177,-0.1217426,0.3789740,0.1534665,0.2631601,-0.2831114,0.2334412,0.3581931,0.1887422,-0.1903166
-0.0324903,0.2454590,-0.0539168,-0.2251579,0.1042197,0.7333563,-0.0801890,-1.4912499,0.3735838,-0.2941115,-0.6788967,0.2341831,-0.0848288,0.3393379,0.0111939,-0.1665274,-0.3340780,0.1906905,0.3950942,-0.0296955,-0.2758614
-0.0846246,0.5077085,-0.2618332,-0.2703632,-0.1908193,0.6543724,-0.1116792,-1.4340241,0.2758152,-0.5179975,-1.0088582,-0.1090681,-0.0047383,0.3071014,-0.1791594,-0.1986901,-0.1961156,0.2489464,0.3369713,0.0133977,-0.2073324
-0.1322585,0.3538819,-0.5507298,-0.5236523,-0.0178160,0.0455328,-0.1508784,-1.6034511,0.1700617,-0.8986160,-0.9750719,-0.1038722,-0.2678364,0.0355241,-0.5405408,-0.1672100,-0.2688122,0.0506332,-0.1032783,-0.2344893,-0.4458610
-0.1428763,0.3070754,-0.4791119,-0.2789369,-0.2786146,0.0370125,-0.1629796,-1.7507033,-0.0891081,-0.8723820,-0.7664874,-0.2076480,-0.4553698,-0.0578369,-0.7870287,-0.5016145,-0.5694731,-0.1420926,-0.1145857,-0.3784384,-0.7121747
-0.0961225,0.3689580,-0.5281065,-0.3320088,-0.3630328,-0.2084627,-0.4180183,-1.4688416,0.1352759,-0.5750753,-0.9989604,-0.4951360,-0.5381050,-0.1779688,-0.7182755,-0.5268452,-0.6165602,-0.2475704,-0.2505799,-0.4602123,-0.6938740
-0.1182701,0.4772527,-0.4164588,-0.4051558,-0.3207842,-0.0082839,-0.2441595,-1.5444486,-0.2657670,-0.9788465,-1.1269784,-0.4360488,-0.4594314,-0.2595353,-0.7571774,-0.1534522,-0.6027425,-0.0984932,-0.4139024,-0.4670824,-0.5285011
-0.1512412,0.2482908,-0.3837200,-0.3330873,0.1553685,0.0125959,-0.0864480,-1.6335889,-0.3744262,-1.0626972,-0.9633113,-0.3079811,-0.4931983,0.0994301,-0.7673007,-0.5277913,-0.6432037,0.1549521,-0.3175559,-0.3411357,-0.3401811
-0.0368890,0.2416754,-0.0845628,-0.2154657,-0.1559332,-0.1068193,-0.0352563,-1.6644064,0.0448109,-0.6865430,-0.9467298,-0.3891608,-0.2170736,0.1541665,-0.4206659,-0.4514641,-0.4645893,0.2175438,-0.1823262,-0.3212517,-0.2722029
-0.0220721,0.2226915,-0.0869310,-0.4719302,-0.0655146,-0.0545548,0.0275578,-1.6849649,0.2013222,-0.4916825,-1.0650554,-0.4018874,-0.0942609,0.2016446,-0.2934551,0.0327820,-0.2622243,0.1417151,0.1693489,-0.1474380,-0.3594148
-0.1333936,0.1826132,0.0285651,-0.6006808,0.0853597,-0.0290567,-0.0530312,-1.6105857,0.1932850,-0.5803383,-1.0414041,-0.1367813,-0.2021002,0.2316107,-0.3844411,-0.0763991,-0.1530788,0.1553600,0.0221471,0.0263836,-0.1811613
0.0713740,0.3376050,-0.0355197,-0.3317047,0.0179762,0.6913010,0.1143407,-1.5856479,0.4088209,-0.6545468,-0.8579512,0.0293147,-0.0657210,0.4165133,-0.5395702,0.0390434,0.0152614,0.3090802,0.1728398,0.1424744,-0.0224327
0.1534916,0.4297171,-0.0022409,0.0133532,-0.0884846,1.2330374,0.2275994,-1.5955132,0.1743217,-0.4938678,-0.7555831,-0.0123287,0.0991268,0.3537505,-0.4081728,0.1792780,0.0970827,0.5257287,0.2672870,0.0173168,0.0384824
0.1567379,0.3685522,0.1326194,-0.0457921,-0.0604337,0.6056374,0.1349294,-1.4448068,0.3758223,-0.4878078,-0.7654797,-0.1724198,0.1106299,0.3422195,-0.2957959,-0.0723686,-0.1019254,0.4016693,0.0944833,-0.0798381,0.0317451
0.1157422,0.2515219,-0.1513169,-0.1552684,0.0191859,0.1706864,0.1133259,-1.4932395,0.1531123,-0.3953470,-0.8571680,-0.2058863,-0.0634077,0.4067707,-0.2533019,0.0863631,-0.0993216,0.3414155,0.1368500,-0.0825108,-0.1689349
-0.0570198,0.2949098,-0.1144281,-0.2710703,0.0828703,0.5814281,0.0989322,-1.5409962,0.4144999,-0.1765522,-0.7133695,-0.3271491,0.0983587,0.3444302,-0.2901083,0.4140644,-0.0637801,0.4814777,0.1412906,0.0010820,-0.1349810
-0.1026791,0.2844646,-0.1336453,-0.4344826,-0.2157831,0.8192042,-0.1751451,-1.4278597,0.4745965,-0.1258458,-0.2732723,-0.2760822,0.1220063,0.1378597,-0.5378182,0.2317321,-0.0532609,0.2684563,0.1227245,0.0715456,-0.2640686
-0.1043538,0.1635448,-0.1297779,-0.5693497,-0.3906578,-0.0495557,-0.2071326,-1.4345608,0.2548018,0.0179737,-0.2668702,0.1288464,-0.0730855,0.1350872,-0.8352904,0.0610605,-0.1634446,0.2003443,-0.0425396,0.0200618,-0.2510470
-0.1932473,0.2216608,-0.2565303,-0.4943521,-0.3215146,0.2271193,-0.0884827,-1.5719627,-0.0781096,0.0684704,-0.3998231,-0.1326005,-0.1277863,0.1067206,-0.8001728,-0.0717812,-0.1256315,0.4900774,0.1631900,-0.1516972,-0.0662373
-0.1778788,0.2347468,-0.1569407,-0.4235544,-0.1757433,0.8055027,0.2140170,-1.6105058,-0.1093556,-0.2352830,-0.4119569,-0.3517635,0.3087953,0.1819846,-0.6412930,0.2318543,-0.0814303,0.5192779,0.2536384,0.0460175,-0.0897431
-0.1339256,0.0852793,0.3449559,-0.3664823,-0.2148633,0.5682617,0.0530970,-1.5636591,-0.0531716,-0.2177147,-0.5615054,0.0591133,0.4480411,0.2643253,-0.7451158,0.0687750,-0.1282380,0.4665766,0.1755470,0.0811347,-0.1894264
-0.1447455,0.0639695,0.1692785,-0.5865684,-0.4615559,0.4489422,0.1638228,-1.5347946,-0.1564176,-0.2421913,-0.6382200,0.3332564,0.1090992,0.3446175,-0.5401378,-0.0886461,-0.1592514,0.4983498,0.1801142,-0.2506192,-0.2100842
-0.1574302,-0.0459410,-0.0969486,-0.5872341,-0.2495633,1.0794538,0.2668390,-1.7082714,0.1873544,-0.3913224,-0.6824872,-0.1673697,0.0413765,0.3472361,-0.5481473,-0.0581118,-0.0825870,0.6122343,-0.0209807,-0.0415335,-0.2202721
-0.1350646,0.1058111,-0.0515623,-0.6650786,-0.3252629,0.7966647,0.2334286,-1.8030499,-0.1475608,-0.6334636,-0.3229810,0.1155856,0.1277827,0.4470344,-1.1628747,-0.0548765,-0.0865413,0.4300112,0.0774792,-0.0453295,-0.1964699
-0.1946073,-0.0881346,-0.1101156,-0.8196236,-0.8480191,0.4521850,0.2359397,-1.8190041,-0.5201180,-0.5576510,-0.4935810,0.5138538,0.0802548,0.3450773,-1.1371937,-0.0243454,-0.0334692,0.3975751,-0.0027353,-0.0819286,-0.3245307
-0.1707255,0.0115221,-0.1767322,-0.7090676,-0.7316920,0.6789198,0.1484028,-1.7037185,-0.3430964,-0.4650101,-0.4630035,-0.1540380,0.0068504,0.2447046,-0.9745656,-0.1654769,-0.0179609,0.3914358,-0.0066910,-0.1916526,-0.3274270
-0.2547344,0.0393943,-0.0415205,-0.8194965,-0.6700610,1.0166078,0.1947126,-1.7333674,-0.1318117,-0.5262095,-0.5572354,-0.2909208,0.0790998,0.2197171,-0.8167519,-0.5562670,-0.2174669,0.1700149,-0.2128741,-0.2518547,-0.1948585
-0.1010724,0.1191231,0.2981017,-0.6943015,-0.2454184,0.8321695,0.2700165,-1.9156388,-0.3610543,-0.4881322,-0.6357025,-0.1348123,0.0442517,0.2876706,-0.7686327,-0.4061006,-0.0828885,0.2649585,-0.0052596,-0.1692821,-0.0731009
-0.1526318,0.2988593,0.1772377,-0.4865173,-0.0148102,0.9828499,0.3196177,-1.6066312,-0.0950362,-0.5063792,-0.5897515,-0.1091497,0.1628539,0.4250489,-0.5971094,0.0469029,0.1958981,0.4680512,0.3158716,0.1622830,0.0277116
-0.1566669,0.2554864,0.2646298,-0.4607427,-0.0308070,0.5740477,0.2525954,-1.2578362,-0.0724118,0.0800142,-0.7771545,-0.2582182,0.3145562,0.3683806,-0.4439265,0.0880280,0.2692812,0.4105784,0.4381495,0.2374188,-0.1251826
-0.2284758,0.1410355,0.0573712,-0.5013155,-0.1044739,0.2214985,-0.0041955,-1.4758312,0.0797432,-0.1882950,-0.7838249,-0.1528086,0.0819676,0.1176437,-0.5826482,0.0455013,-0.0307377,0.0175315,0.2410548,0.0617995,-0.3796651
-0.2396691,0.0642006,-0.1111699,-0.6136290,-0.0799395,0.1027629,-0.1606167,-1.7735229,0.1419288,-0.7590299,-0.6037556,-0.2782036,-0.1661653,0.0581646,-0.9242725,-0.5908307,-0.4225515,-0.2087829,-0.0289639,-0.3088514,-0.4615206
-0.2423244,0.0687871,-0.4804095,-0.6482393,-0.2758511,-0.1029292,-0.2669989,-1.6671814,-0.3479003,-1.0501230,-0.8576632,-1.0394984,-0.4860479,-0.2149280,-1.0770495,-0.3968595,-0.4563027,-0.1786825,-0.3335668,-0.5826843,-0.6242272
-0.3280184,-0.2156936,-0.4913230,-0.7165390,-0.9359199,-0.0849891,-0.4753364,-1.6532260,-0.2823088,-0.7495559,-0.7459668,-1.0021429,-0.5228004,-0.3486791,-1.0749174,-0.2673548,-0.5137445,-0.3066761,-0.6402388,-0.6981128,-0.7717596
-0.3379658,-0.3866693,-0.2025657,-0.8250436,-0.6169512,0.2998053,-0.4422321,-1.9854361,-0.3863458,-0.8006817,-0.8152578,-0.5110835,-0.5559403,-0.4173186,-1.1592648,-0.3605688,-0.5944875,-0.1460840,-0.6847117,-0.8681714,-0.7688412
-0.2153186,-0.1133985,-0.1115429,-0.8195719,-0.7817137,0.0944511,-0.3557720,-1.9352088,-0.5817076,-0.8195728,-0.6361496,-0.7062965,-0.3331745,-0.3313140,-1.1158211,-0.5728855,-0.5050383,-0.1669787,-0.6279920,-0.8056163,-0.7235655
-0.2260046,0.0514291,-0.3276095,-0.4795664,-0.5224683,0.3715910,-0.2903937,-1.7936993,-0.3670922,-0.8095416,-0.6944034,-0.6729837,-0.3377931,-0.3559077,-1.3190765,-0.4475508,-0.3398032,-0.2170244,-0.5727213,-0.6203520,-0.6784344
-0.0893033,-0.0476272,-0.2974092,-0.2985975,-0.6098740,-0.0838091,-0.3734336,-1.6874573,-0.3154605,-0.9380208,-0.7373523,-0.2665206,-0.4242464,-0.2674965,-0.9820122,-0.5968665,-0.6435648,-0.1522762,-0.6177221,-0.8305707,-0.7406679
-0.1180845,-0.0383663,-0.5438547,-0.3339091,-0.5701632,-0.5283347,-0.4320045,-1.3544670,-0.0293353,-0.7112425,-0.8179553,-0.5787280,-0.5161479,-0.4000039,-0.9780088,-0.7556637,-0.5327672,-0.3126523,-0.4779199,-0.8850743,-0.8963904
-0.2427042,-0.2195918,-0.6414753,-0.5035475,-0.1873747,-0.6401299,-0.3853227,-1.5319141,-0.2272729,-0.7889955,-0.3788690,-0.5318638,-0.5724610,-0.4649347,-1.1668758,-0.4037792,-0.3923840,-0.1462986,-0.3754025,-0.8435550,-0.7113773
-0.1676105,-0.1872701,-0.3919629,-0.5407976,-0.6685441,-0.4671469,-0.3902803,-1.6520677,-0.5144079,-0.6966295,-0.7396978,-0.0452310,-0.3491338,-0.4591999,-1.0330344,-0.4690063,-0.5399970,-0.1841110,-0.3719070,-0.7937967,-0.6442947
-0.2190803,-0.0538254,-0.3787521,-0.4542389,-0.4198828,-0.3945512,-0.1753623,-1.6261139,-0.5490638,-0.6846297,-0.8247854,-0.1076903,-0.3436883,-0.4115261,-1.0006661,-0.5178770,-0.4752588,-0.0999787,-0.2497484,-0.7435287,-0.5920776
-0.1562757,0.0508315,-0.0357094,-0.4085489,-0.6587201,-0.1664438,0.1451932,-1.6745338,-0.4076354,-0.5417088,-0.7282243,-0.5647712,0.0296876,-0.0793386,-0.9820704,-0.4422292,-0.3935340,0.1353174,-0.2503440,-0.4787813,-0.4267273
-0.0767681,0.0255683,0.0083552,-0.2969387,-0.7874659,0.5603833,0.1953737,-1.6168451,-0.3238860,-0.3909264,-0.8377885,-0.2356311,0.2638671,0.1045336,-0.7820253,-0.0745678,-0.0400953,0.2913326,0.0209296,-0.2196154,-0.0921798
-0.0358556,0.1199825,-0.0541288,-0.1778845,-0.3398109,0.5537192,0.3625893,-1.4347793,0.4300238,0.0416863,-0.4903609,0.2575573,0.4634560,0.2480338,-0.4232102,0.4347646,-0.0649197,0.4835702,0.2133847,-0.0284819,0.1387776
0.0573134,0.2381995,-0.2847329,0.1505529,0.0286659,0.4577647,0.2088901,-1.1267542,0.5059377,0.3632179,-0.6150136,0.0849878,0.3392119,0.2112316,-0.3020214,0.4915307,-0.0743829,0.4655590,0.1726280,0.0157613,-0.0155586
0.0587551,-0.0027026,-0.2105011,0.0272650,0.0645574,-0.0965382,-0.0149879,-1.1807550,0.5284975,-0.0523017,-0.7298790,-0.2258061,0.1421092,0.0543082,-0.5317676,0.1623228,-0.3062966,0.1149067,0.2354425,-0.3286836,-0.0834983
-0.0468022,-0.0101861,-0.1085534,-0.2363806,-0.5653458,-0.6692511,-0.0458636,-1.3307989,0.3802406,-0.3915711,-0.7399615,-0.1937231,-0.1325722,0.0008093,-0.6167802,-0.0144666,-0.5411706,0.0551656,0.2153756,-0.4528231,-0.2614696
-0.0032198,0.0396745,-0.1189462,-0.0977461,-0.2510012,-0.5785217,-0.1706428,-1.2966105,-0.0133593,-0.4712795,-0.8322902,-0.3408492,-0.3298271,-0.1118148,-0.4976663,-0.2273769,-0.6350735,0.0718040,0.2353219,-0.5123575,-0.2682007
0.0614462,0.2919922,-0.3341419,-0.0839061,-0.1699622,-0.2069010,-0.1940251,-1.2619106,0.0676938,-0.1690466,-0.6827915,-0.4694122,-0.1218369,-0.1933595,-0.7060801,-0.3002716,-0.2575504,-0.0252729,0.3016073,-0.3653315,-0.2662956
0.0446377,0.2220023,-0.2544762,-0.1084167,-0.5861361,-0.4821475,-0.0878228,-1.4513520,-0.0481316,-0.3199371,-0.4173842,-0.1952109,-0.1078347,-0.1743166,-0.5101719,-0.0372975,-0.1152156,-0.0259404,0.1478104,-0.4308344,-0.3146353
-0.0060673,0.2031932,-0.0263099,0.0017012,0.0430225,-0.5830385,-0.0818121,-1.4079059,0.1898458,-0.1895567,-0.3912097,-0.1800959,-0.0990557,-0.1343249,-0.7092033,0.1491091,-0.0941522,0.1250460,0.0361007,-0.4264224,-0.2709173
0.0071016,0.2871814,-0.1851227,0.1238033,0.1138780,-0.4389718,0.1025425,-1.1970625,0.4247741,0.0839908,-0.3660201,-0.6966161,0.0856633,-0.1182141,-0.4375969,0.0403141,0.0447133,0.2387943,0.3206443,-0.2556870,-0.2354979
0.0941836,0.2390501,-0.1999923,-0.0321887,0.1420544,-0.2873539,0.4085418,-1.2544585,0.7312680,-0.0647333,-0.5099400,-0.3082912,0.2326872,0.0101269,-0.4774353,-0.0257627,0.2065123,0.3316083,0.3175876,-0.1976129,-0.0965885
-0.0200027,0.1901381,-0.0008166,-0.1991197,0.0830542,-0.3601733,0.2899678,-1.3660275,0.2906637,0.0156805,-0.7245497,-0.0594987,0.2481528,0.0609111,-0.7587248,-0.2579660,-0.1183342,0.2899674,0.2247923,-0.0919333,-0.1154262
-0.0495185,0.0811737,-0.3050094,-0.3434528,-0.1206492,-0.2974377,0.0251348,-1.2545053,-0.0532815,-0.0365030,-0.7634273,-0.5464079,-0.0338166,-0.0399595,-0.8365285,-0.0081719,-0.2091249,0.1028965,0.2753792,-0.3145545,-0.3990173
-0.0640793,0.1713773,-0.3336620,-0.5689594,-0.0227249,0.0490250,-0.1308143,-1.2404299,-0.1738779,-0.3637238,-0.7829947,-0.6894793,-0.2293430,-0.1020571,-0.9649398,0.0095891,-0.1586247,-0.0427700,0.2021940,-0.1442970,-0.3464842
-0.1389498,0.1286549,-0.1994294,-0.6356209,-0.2512366,-0.1704626,-0.1557285,-1.3307973,-0.0308903,-0.6548966,-0.8164353,-0.2793091,-0.0421794,-0.0924684,-1.0146272,-0.0604611,-0.2965963,-0.0758285,-0.0087450,-0.1411074,-0.2270902
-0.1091022,0.1046584,-0.2448115,-0.4984035,-0.5241501,-0.6656702,-0.0309873,-1.3896959,-0.0532974,-0.3794155,-0.6030545,-0.0832980,-0.0828472,-0.2259414,-0.8271111,-0.0340060,-0.0617605,-0.0031932,0.1833780,-0.1168948,-0.1875029
-0.1259776,0.1222476,-0.5220380,-0.6332121,-0.1779933,-0.2941275,-0.1695600,-1.4614655,-0.2499391,-0.8375584,-0.8569493,-0.3121387,-0.1543049,-0.3961903,-1.0336344,-0.4815392,-0.1676956,-0.0775274,-0.0659899,-0.1215168,-0.3009327
-0.1485584,0.0704310,-0.5202313,-0.8255339,-0.4677727,-0.3192615,-0.3520829,-1.6392270,-0.5236353,-0.9566339,-1.1063372,0.0819153,-0.1843220,-0.3443018,-1.1069467,-0.4762372,-0.2595518,-0.0944011,-0.1328877,-0.3136855,-0.2964655
-0.1331225,0.0351954,-0.2945432,-0.7449251,-0.3825851,-0.7574621,-0.0578350,-1.5460665,-0.5735762,-0.7970480,-1.3470922,0.0510649,-0.3212221,-0.2568707,-1.0741987,-0.5236501,-0.2280903,-0.1911881,-0.0931403,-0.3452477,-0.4070404
-0.0675781,-0.0281432,-0.3728216,-0.6199896,-0.4235971,0.3249893,-0.2387083,-1.4847112,-0.5336877,-1.3064220,-1.0428494,-0.1510050,-0.2535019,-0.2695780,-1.1720413,-0.5197971,-0.3399256,0.0263829,-0.2578339,-0.3332527,-0.4788820
-0.0335605,0.1332844,-0.2784603,-0.5280520,-0.3343876,0.1086587,-0.1820956,-1.5066117,-0.3530375,-1.2262492,-1.0352147,-0.2077991,-0.1298517,-0.2555741,-1.2276453,-0.3561282,-0.2503783,-0.0579180,-0.3684255,-0.3408013,-0.6006921
0.0456587,0.1122646,-0.2668506,-0.2565853,-0.2472915,-0.0293901,0.1493396,-1.2819254,0.0306342,-0.8970760,-1.1055094,-0.0113157,-0.1761716,-0.0465668,-1.0962832,-0.3293342,-0.3609175,-0.0992200,-0.4656749,-0.5470515,-0.6444774
0.1246667,0.3524484,-0.2153713,-0.3581541,-0.1616606,-0.0582604,0.0289578,-1.2680190,0.0838934,-1.0102824,-0.8765702,-0.5656736,-0.1049656,0.0073063,-1.1206487,-0.4340221,-0.2320766,0.0860485,-0.5467362,-0.8162929,-0.5158570
0.0452765,0.2984447,-0.0239829,-0.4220182,0.1671972,-0.2133869,0.1483435,-1.3676363,0.0530246,-1.3982704,-0.4955260,-0.3074179,-0.0683053,0.0009494,-0.8788835,-0.6403693,-0.2221255,-0.0629034,-0.6264634,-0.5526387,-0.5042198
0.1749968,0.3052627,0.0147629,-0.1699783,0.1671369,-0.0192436,0.2763434,-1.3012655,-0.0685207,-0.7452313,-0.7431790,-0.0213860,0.1252143,-0.0437007,-0.8808621,-0.6355764,-0.4170295,0.1174876,-0.6248094,-0.7927249,-0.6154649
0.3296531,0.5011770,0.2552663,-0.0886758,0.1727380,0.1673024,0.4092003,-1.0307289,-0.0946581,-0.3428570,-0.9971374,-0.1643005,-0.0332836,-0.1212843,-1.0003105,-0.6888113,-0.3978272,0.1733217,-0.3283635,-0.6413409,-0.4565436
0.2789370,0.7264127,0.5823353,-0.0468616,0.5238314,0.5187088,0.4730635,-1.0231712,0.1559894,-0.3479444,-0.7746785,-0.1959419,-0.0259035,-0.0581780,-0.7015350,-0.3988258,-0.3874163,-0.0330797,-0.3719752,-0.5062396,-0.4882636
0.3817399,0.5782434,0.4589823,0.2741011,0.7285589,-0.2677856,0.2979193,-0.9765735,0.1191167,-0.8528010,-0.9871536,-0.1213290,0.0265794,0.0175627,-0.6486291,-0.4688847,-0.6829765,0.0642443,-0.4444385,-0.6203130,-0.5217211
0.5027273,0.5026001,0.3001960,0.1887147,0.5017756,-0.4046254,0.1727828,-0.9295185,0.3096674,-0.6248315,-1.0514069,-0.5476512,-0.1343601,-0.0253190,-0.7704929,-0.5208339,-0.5965908,0.0894585,-0.3408453,-0.6108484,-0.4968252
0.4320380,0.6298016,0.4112510,0.1429799,0.3659793,0.2036880,0.1919544,-1.0025566,0.1607367,-0.4363845,-1.2892666,-1.1936589,0.0337056,-0.0806486,-0.6126127,-0.4617165,-0.3560125,0.1983710,-0.2149732,-0.4048443,-0.2675875
0.5312443,0.4595315,0.5716172,0.0861837,0.5406057,-0.1057854,0.2958386,-1.0825795,0.1710286,-0.4195718,-1.0454944,-0.6627602,0.0674089,0.1633576,-0.8538885,-0.2512985,-0.2486828,0.1599265,-0.2523164,-0.4550817,-0.1924498
0.5244218,0.5045477,0.5871169,0.1460597,0.2572734,-0.2475728,0.1464541,-0.9357476,0.2566327,-0.3799916,-0.8640912,-0.0355767,-0.0726490,-0.0501124,-0.8068375,-0.1619256,-0.0684493,0.2055504,-0.3103448,-0.2691350,-0.2028280
0.4658713,0.6444268,0.4256249,0.3844433,0.1736460,-0.1158393,0.2725380,-0.7761440,0.1487333,-0.5628317,-0.8874511,-0.1124293,0.1613904,-0.0977514,-0.6620355,-0.0021404,-0.0542576,0.1134363,0.1649207,-0.1031336,-0.1146382
0.6805030,0.6882403,0.8424374,0.5255203,0.6645430,0.1168680,0.3064009,-0.7055838,0.2497199,-0.5350427,-0.5682473,-0.0347770,0.2170377,0.1493881,-0.7073299,0.1312162,-0.1144480,0.0828501,0.2584604,-0.1225193,-0.1274776
0.7253503,0.7722776,0.7947779,0.4483126,0.9127542,-0.3185496,0.3389820,-0.9041082,0.3248544,-0.1571260,-1.0023551,0.3428356,0.0694664,0.2101974,-0.6597285,-0.4006049,-0.2256220,0.0838288,0.0624068,-0.4042495,-0.2974195
0.8312516,0.8008927,0.6972817,0.5617757,0.4322270,-0.4337119,0.2409538,-0.9237697,0.1789966,0.1499593,-1.2016236,0.1119544,0.0200125,0.0791745,-0.6644812,-0.2775717,-0.3064640,0.1426725,0.0049700,-0.3699183,-0.2260782
0.9493338,0.7557259,0.7700527,0.5027978,0.5482468,-0.1362284,0.1101561,-0.8094327,0.5652804,-0.0229714,-1.1454331,-0.1531700,-0.0351220,0.0836268,-0.7674066,-0.0921690,-0.4181125,-0.0318260,0.0065062,-0.5865630,-0.4642960
0.7265241,0.6329201,0.3011069,-0.0653390,0.3300130,-0.0274143,-0.1408843,-0.8872467,0.1930901,-0.2517441,-1.2078780,0.0993837,-0.3031308,-0.1815446,-1.0343508,-0.4447112,-0.4013959,-0.3105772,-0.3379852,-0.5541502,-0.6606171
0.8030162,0.6076409,0.1342730,0.4802411,0.4568112,-1.0931962,-0.3804323,-1.0946207,-0.1818091,-1.0153797,-1.2199159,-0.1537854,-0.5124106,-0.3692150,-0.9854738,-0.9464903,-0.8231387,-0.3924329,-0.5151058,-1.0027467,-0.8915941
0.9448363,0.8256774,0.3153904,0.6126304,0.8195950,-0.8311388,-0.3411895,-0.8972186,-0.3556071,-1.6105511,-1.3886231,-0.9313179,-0.6315977,-0.4601869,-1.0324914,-1.1951739,-1.2429671,-0.6131901,-0.6924683,-1.2680055,-1.1464456
0.9411929,1.0452634,0.2651396,0.4102468,0.5894012,-0.2377331,-0.4207853,-0.8368304,-0.1747805,-1.5085536,-1.5532243,-0.8239661,-0.9070141,-0.5892658,-0.9689277,-1.2342242,-1.2180319,-1.0400360,-0.8388970,-1.2557348,-1.3220766
0.9038096,0.9583742,0.3137546,0.2934143,0.3657706,-0.7666826,-0.4853331,-0.8509285,-0.2850963,-1.7711406,-1.6108630,-0.7940708,-1.1157321,-0.7975614,-1.2412524,-1.2320617,-1.2861975,-1.0159649,-0.8015872,-1.3804780,-1.4929373
0.9445458,1.1703082,0.4308834,0.4861385,0.5646822,-0.6568978,-0.4785863,-0.8231894,-0.2385205,-1.4661995,-1.7944475,-1.3466816,-1.0065991,-0.8440788,-1.1540149,-1.2494359,-1.4005954,-0.9956231,-0.8350524,-1.4391230,-1.4054785
1.2135230,1.4347075,0.8716434,0.6655567,0.8684481,-0.0965668,-0.1885283,-0.7355023,-0.2938396,-1.2533938,-1.9410383,-1.1944629,-0.9921904,-0.8387540,-1.2194444,-1.4466615,-1.5831209,-1.0753576,-0.8740840,-1.4612582,-1.4409413
1.1877196,1.1251537,0.7056643,0.4481111,0.3740414,-0.5780374,-0.4470755,-0.8966057,-0.4227397,-1.3730987,-1.8527066,-0.9079704,-0.8692116,-0.9226081,-1.5633777,-1.5215110,-1.6275465,-1.1718128,-0.8329366,-1.5847368,-1.6066492
1.2180558,1.1850309,0.4477269,0.5007396,0.6195148,-0.8145798,-0.6716965,-0.9799258,-0.4379475,-1.1808343,-1.7837945,-1.0467392,-0.9053633,-0.9248387,-1.6322063,-1.6143317,-1.6732142,-1.2426211,-1.1792159,-1.5947361,-1.5458400
1.3190775,1.3225485,0.4422001,0.6056025,0.9089860,-1.0864761,-0.5872786,-1.0942606,-0.4298015,-1.1151562,-1.8801299,-1.5410216,-1.0969496,-0.9460158,-1.6585020,-1.5239873,-1.7540575,-1.4280558,-1.2750736,-1.7419696,-1.6357660
1.2853899,1.2684847,0.3143770,0.3937971,0.7729951,-0.9376515,-0.7382953,-1.2572311,-0.4407444,-1.6826020,-1.7422595,-1.8378147,-1.1426691,-1.1205021,-1.8017944,-1.5969877,-1.5530919,-1.4470037,-1.3841645,-1.7066679,-1.5232998
1.2920930,1.2737474,0.4135916,0.3927386,0.5104713,-0.6269233,-0.7467545,-1.1212474,-0.3692255,-1.7794561,-1.9080845,-1.8009462,-1.5032572,-1.2675929,-1.4893157,-1.5962771,-1.6890068,-1.2858615,-1.2776711,-1.6791980,-1.4387320
1.4468539,1.2488399,0.3326741,0.5646387,1.0161829,-0.6499604,-0.6757625,-0.9912897,-0.2699293,-1.6996017,-2.1290605,-1.9106128,-1.3915405,-1.2113233,-1.3678899,-1.6304600,-1.7782866,-1.4680977,-1.2315637,-1.7121195,-1.3713262
1.5874754,1.3650930,0.3203309,0.7442870,1.3107064,-0.7240527,-0.8891070,-1.0171187,-0.2631611,-1.4912460,-2.1205251,-2.0430079,-1.5231292,-1.3136556,-1.5456144,-1.6288240,-1.6866246,-1.4702853,-1.0700905,-1.6633527,-1.3896838
1.5927548,1.3456970,0.1533115,0.7619782,1.3294178,-0.9702570,-1.1213666,-1.0049303,-0.0782820,-1.4928796,-2.3694768,-1.7827163,-1.8040005,-1.3631359,-1.1115332,-1.4991847,-1.6782403,-1.4535410,-0.9664557,-1.5825846,-1.4733967
1.7385973,1.6243294,-0.0055851,1.0441755,1.6499345,-1.2087572,-1.1963724,-0.8142787,0.3271496,-1.4992669,-2.0014389,-2.0953419,-1.4935690,-1.4873037,-1.1522404,-1.7071295,-1.6375248,-1.6763672,-0.9433239,-1.7200686,-1.6557993
1.9592489,1.6254783,-0.1003052,1.1096344,1.6525306,-1.2435721,-1.2490478,-0.6104894,0.6660007,-1.3293625,-1.9049335,-1.9598619,-1.7355862,-1.5186983,-0.9943641,-1.5464772,-1.6021047,-1.5492870,-0.9027182,-1.6238090,-1.4473760
1.9919746,1.6778488,0.1988348,1.2994635,1.7080635,-1.3446497,-1.2360350,-0.5625546,0.6928706,-0.7969475,-2.0087681,-1.2931309,-1.7342839,-1.4455404,-0.7632836,-1.2532527,-1.4804482,-1.4095964,-0.7557213,-1.6240511,-1.4164684
2.0557323,1.6195914,0.2678175,1.3363571,1.7448324,-0.9567260,-1.1194338,-0.5144385,0.9400601,-0.9644001,-2.0123792,-1.4344653,-1.6047785,-1.4141140,-0.6822412,-1.1132060,-1.5800335,-1.4583946,-0.5836458,-1.5671287,-1.4130676
2.1240830,1.9285390,0.9137172,1.6474078,2.2118068,-0.4311217,-0.6270533,-0.3077811,1.4096782,-0.5933153,-1.6612750,-1.6335995,-1.1986427,-1.1799269,-0.3947817,-0.7718369,-1.3411171,-1.2609919,-0.6045604,-1.4695685,-1.2672400
2.2921991,2.0779748,1.4978191,1.6671200,2.0388188,-0.2736859,-0.1587977,-0.0001900,1.2752174,-0.7088755,-1.7614559,-1.0586040,-1.1732423,-0.8852070,-0.3713673,-1.1394379,-1.3604194,-1.0937784,-0.5341423,-1.5442325,-1.3129132
2.2006238,1.9619439,1.2746507,1.6466092,1.5420507,-0.8482779,-0.3281199,-0.0818209,1.0961642,-0.5210638,-1.9608375,-1.0425439,-1.1573465,-0.8011601,-0.6247397,-1.4039125,-1.4881375,-0.9906906,-0.9934465,-1.6248635,-1.4054954
2.2120681,2.0631952,1.0064492,1.4795892,1.6947228,-0.8704342,-0.6229550,-0.3524689,0.7432462,-0.7713124,-1.9621863,-1.5217522,-0.9705647,-1.0544084,-0.6818030,-1.3378155,-1.4758569,-1.1432362,-1.0683020,-1.8903661,-1.4428960
2.2338057,2.0552251,0.6446934,1.4798071,2.0066969,-0.9681266,-0.7716357,-0.4464099,0.3825992,-0.8801113,-2.1070549,-1.8445308,-1.2964462,-1.3050487,-1.3175454,-1.7217773,-1.9417344,-1.7419655,-1.2954046,-2.1477690,-1.7217263
2.2509978,1.8749187,0.4353172,1.5208020,1.7465854,-2.1672928,-1.2890797,-0.5851690,0.2918295,-0.9459902,-2.5349267,-1.8552730,-1.9217005,-1.5938911,-1.6145163,-2.0947659,-2.2599626,-2.0930128,-1.7267510,-2.4554048,-1.9274480
2.1830695,1.6672583,-0.0897378,1.2732822,1.3308033,-2.8894415,-1.7878866,-0.7622201,-0.1804008,-1.7874224,-2.5574157,-2.2734857,-2.4537044,-1.9874772,-2.1762328,-2.4014587,-2.3612030,-2.2194126,-2.0761237,-2.7930260,-2.2152579
2.1232450,1.6043199,-0.5091890,1.0349411,1.2637472,-2.0672927,-1.8855236,-0.9129900,-0.1683863,-2.3416276,-2.4772983,-2.4829428,-2.5900667,-2.2585888,-2.0816016,-2.3094532,-2.2073083,-2.5543575,-2.2141702,-2.6814301,-2.1368482
2.1368811,1.7412581,-0.4705178,0.9460183,1.3689989,-2.0273948,-1.8938898,-1.0118155,-0.1653178,-1.9372011,-2.4942327,-1.8885176,-2.4106760,-2.1869969,-1.9148723,-2.1479824,-2.2688615,-2.3563535,-2.0127628,-2.4986358,-1.7857802
2.2035027,1.7593797,-0.4011082,1.1536798,1.3500881,-1.9569725,-1.6613320,-0.8513725,-0.3657596,-2.0389180,-2.5292859,-2.0796392,-2.0850468,-1.9538774,-1.9573267,-2.2113481,-2.3113141,-2.1430340,-1.7030576,-2.4081464,-1.9959006
2.2983162,2.0408661,0.1526215,1.3798770,1.0949584,-1.3414054,-1.3935875,-0.7860999,-0.1117301,-2.1945386,-2.3772597,-2.4681141,-2.0480230,-1.8619826,-2.2544310,-1.9384488,-2.1334445,-2.0106969,-1.9287410,-2.5220387,-1.9904846
2.3406138,1.8726277,0.3817639,1.3202398,1.3973564,-1.6657726,-1.2851177,-0.8501002,-0.2081527,-1.8458267,-2.4537258,-2.0413694,-1.9267818,-1.7808838,-2.2119801,-2.0360579,-2.0063877,-1.9832644,-2.1521089,-2.3847365,-1.8089390
2.3628798,1.8913391,0.5106471,1.5765829,1.8978839,-1.4227527,-1.2889464,-0.8104349,-0.1565468,-1.8459711,-2.1915486,-1.6720198,-1.8457870,-1.7531315,-1.7758757,-1.8724287,-1.8231815,-2.0864873,-1.6228440,-2.1106341,-1.7266479
2.4756453,2.2227571,0.5107244,1.5524465,2.1495850,-1.3007647,-1.5182590,-0.5825452,0.4684283,-1.6458124,-1.8299413,-2.1500080,-2.0194254,-1.7793226,-1.3844651,-1.6794535,-1.9355114,-2.2946274,-1.4089241,-1.9912215,-1.8234305
2.5966873,1.9695258,0.4473021,2.1269057,2.5738149,-1.6009806,-1.5293615,-0.4101920,0.7040144,-1.2659143,-2.1198640,-1.9798617,-2.1832242,-2.0225687,-0.9359885,-1.7287898,-2.0729036,-2.4341879,-1.4800678,-2.0253923,-2.0572574
2.9067628,2.2258835,0.7625823,2.5113163,2.6629872,-1.5410631,-1.5377941,-0.0997929,1.3477602,-0.8888589,-2.4237809,-1.8215419,-2.1508040,-2.0630245,-0.7898700,-1.7438439,-1.9829061,-2.1555905,-1.3587530,-2.0259631,-1.8698763
2.9321296,2.3412545,0.6903094,2.3421848,2.7477758,-1.4334757,-1.4372303,0.0075722,1.2776767,-1.1252191,-2.5318172,-2.2036812,-2.1448090,-2.0041647,-0.6712376,-1.5420498,-2.0478230,-2.1677990,-1.1197559,-2.3308389,-2.0373645
2.7549953,2.2555821,0.4355195,2.3708942,2.5453238,-1.6953920,-1.5728178,-0.1742082,0.9236546,-1.0435793,-2.5932097,-2.3506670,-2.0703125,-2.1015437,-0.7758649,-1.4508687,-2.3583469,-2.2437754,-1.3403084,-2.3182821,-2.1377342
2.8377900,2.2149346,0.2943714,2.2225413,2.4360733,-2.1366720,-1.7082283,-0.1932632,1.0213701,-1.1782731,-2.7154825,-2.4770567,-2.3149843,-2.1584580,-0.7965547,-1.5907674,-2.4025908,-2.1145923,-1.4126868,-2.4812970,-2.0702405
2.7685573,2.3116734,0.2988995,2.3421428,2.0207558,-1.8864287,-1.6987019,-0.0677894,0.8478962,-1.3423710,-2.7515442,-2.6839528,-2.5347061,-2.0597751,-0.9360580,-1.9613521,-2.5818589,-2.1191900,-1.3829174,-2.4597638,-2.1041503
2.8084402,2.1934919,0.2393765,2.2337170,2.0643420,-2.0955007,-1.7392840,-0.1140889,0.7848748,-1.6926528,-2.7180583,-2.9711044,-2.6477418,-2.1377776,-1.1140282,-1.8959008,-2.4149899,-2.3026624,-1.4929787,-2.5691714,-2.1058135
2.7958398,2.2541735,0.2811763,2.2704048,1.9852387,-2.5575359,-1.6752710,-0.2465895,0.2620235,-1.7763119,-2.7097108,-2.8370585,-2.5993698,-2.1193299,-1.3150777,-1.9679991,-2.5937376,-2.3458719,-1.6884481,-2.5886126,-2.2414320
2.8160696,2.2697475,0.0236493,2.2000251,1.8716351,-2.6197023,-1.9213790,-0.3137766,0.2734537,-2.1099548,-2.9238868,-2.6125152,-2.7019796,-2.4066265,-1.2733305,-2.3449805,-2.6922131,-2.4355977,-1.6995411,-2.6206186,-2.0316768
2.7951305,2.3240027,-0.0793053,2.0681067,1.9062821,-2.6030777,-1.9999523,-0.4624408,0.1730707,-2.5256977,-3.0613847,-3.1371601,-2.6375859,-2.3766294,-1.6887033,-2.4688823,-2.5650196,-2.5569394,-1.7273033,-2.5170643,-2.1433046
2.7765462,2.3265629,0.0912948,1.8561875,2.2154593,-2.4158340,-2.2020111,-0.6266750,0.2072396,-2.0553939,-2.8688283,-2.7505326,-2.6196396,-2.4773395,-2.2011721,-2.4440880,-2.5318015,-2.7756534,-1.8378780,-2.6302001,-2.3414490
2.6976902,2.1763697,0.0508468,1.8576806,1.8539693,-2.7832544,-2.2991090,-0.7639626,0.0672313,-1.8977581,-2.5814097,-2.4983058,-2.8854692,-2.6438980,-2.0812981,-2.2285993,-2.6703887,-2.7992685,-1.8924791,-2.8075812,-2.3549304
2.8142736,2.2043028,0.2642712,1.8378338,2.1189408,-2.5113811,-2.1531610,-0.4749210,-0.0111970,-2.3145950,-2.4423521,-2.8517275,-2.7727923,-2.6576972,-2.2817738,-2.0553765,-2.5426652,-2.8013897,-1.8440696,-2.6661887,-2.3277869
2.7678857,2.3137095,0.2367984,1.8111236,1.9074249,-2.2515502,-2.1472807,-0.4993227,0.0960706,-1.9759732,-2.4957945,-2.9355528,-2.4011252,-2.6702611,-2.1042664,-1.9675599,-2.4036808,-2.7828364,-2.0791142,-2.5075197,-2.3707893
2.7982032,2.1534867,0.4213288,1.9839246,1.4945183,-2.1611638,-2.0820007,-0.6765450,0.0064516,-1.7497880,-2.6921353,-2.1529813,-2.5291414,-2.5696316,-2.0363426,-2.3798854,-2.5080853,-2.5417733,-2.1644990,-2.4375575,-2.1801002
2.9411428,2.1322896,0.8902184,2.2097559,1.3713343,-1.5742068,-1.7455648,-0.4915037,0.1994424,-1.9830605,-2.3547266,-2.1929798,-2.5552661,-2.2292542,-1.3813931,-2.1693943,-2.3642032,-2.2517548,-1.8929572,-2.3442473,-2.0508780
3.1229179,2.2545304,1.3068764,2.3275900,1.6142340,-1.1423578,-1.6592824,-0.1109193,0.6476730,-1.6488734,-2.2555537,-2.6557379,-2.1580091,-2.0709264,-1.1678599,-2.0133195,-2.3733790,-2.2458107,-1.4274982,-2.3750772,-2.1126192
3.0244186,2.2049305,0.9651368,2.1958547,1.8607274,-1.4910861,-1.6640201,-0.1826298,0.3975450,-1.6556190,-2.5876546,-2.3007040,-2.3865478,-2.1777287,-1.6854533,-2.3166263,-2.6143570,-2.4550993,-1.5978093,-2.6847897,-2.3916628
2.8997610,2.2593477,0.4368690,1.8130124,1.7664846,-1.7472831,-1.8861655,-0.3727046,0.1929915,-1.7976146,-2.6787555,-2.6636314,-2.6899588,-2.2928114,-2.1285920,-2.8565395,-3.1204789,-2.7707009,-2.1095920,-3.0492971,-2.7167113
2.7133820,2.3094137,0.1668629,1.7823790,1.7331145,-2.5706403,-2.4643157,-0.4808515,-0.1386219,-2.6878517,-2.8788462,-3.2471213,-2.9821267,-2.6405504,-2.2169528,-2.8665073,-3.1444590,-3.0027032,-2.3151357,-3.4752150,-2.9989395
2.6713188,2.2652218,-0.2377345,1.7757442,1.5470510,-2.9363346,-2.7766488,-0.5366307,-0.2985275,-2.9080973,-3.2225773,-3.3538396,-3.3802030,-2.9897597,-2.1951492,-2.8366621,-3.5899386,-3.1968188,-2.3923154,-3.4050488,-3.0870936
2.8079634,2.3383238,0.0281226,1.9096661,1.7772727,-3.4702942,-2.9211268,-0.5969707,-0.1415822,-2.2985749,-3.3654058,-3.2067611,-3.5677121,-3.0964394,-2.1653595,-2.7071395,-3.3463521,-3.0461817,-2.3119924,-3.2293518,-2.9452932
2.8507907,2.4019105,-0.0033272,2.0195005,1.7624311,-2.6319010,-2.7663302,-0.5431790,-0.2036708,-2.0656393,-3.0507574,-3.2299445,-3.1460958,-2.9955027,-1.8077130,-2.1557763,-2.8046217,-2.6956658,-1.8875051,-2.8518205,-2.6153419
2.9104595,2.4973054,0.1796109,1.7818755,1.8484187,-1.9893135,-2.4792399,-0.5734755,0.0954571,-1.8983384,-2.8635156,-2.9425688,-2.8824694,-2.8244679,-1.7839031,-2.0819976,-2.5800650,-2.6755483,-1.6358327,-2.5669234,-2.4161189
2.7581077,2.3537824,0.4650607,1.7981884,1.7929338,-1.8020823,-2.4170833,-0.7422550,0.3471948,-1.6949563,-2.6764474,-2.6612062,-2.9125428,-2.6660161,-1.7358216,-1.9408207,-2.6742783,-2.6641779,-1.6167353,-2.6997514,-2.5035851
2.7500477,2.4060404,0.4546656,1.8709419,1.8057662,-1.7592428,-2.4615822,-0.6187466,0.2282270,-1.4578178,-2.7289491,-2.7837355,-2.8390136,-2.4874778,-1.0416582,-2.0864148,-2.5087769,-2.4490366,-1.2599946,-2.7750921,-2.4098902
2.8939652,2.4690077,0.7714514,2.0731759,1.6447177,-1.9778316,-2.4149582,-0.3252707,0.6101156,-1.2954640,-2.5469532,-2.7856085,-2.7871871,-2.3713198,-0.9870793,-1.8709779,-2.5914292,-2.3914633,-1.1944270,-2.6359508,-2.4375496
2.9050233,2.4438486,0.7551152,2.1900563,1.9433690,-2.0271416,-2.3405762,-0.2248888,0.4802809,-1.4922166,-2.7562513,-2.5383365,-2.6687202,-2.3262734,-1.2501909,-1.9919921,-2.7892759,-2.5822227,-1.5166496,-2.6693225,-2.5467291
3.0116675,2.1903996,0.8317263,2.4457927,2.0543129,-1.6732049,-2.3876617,-0.1126545,0.7508116,-1.3884513,-2.7030611,-2.7279828,-2.6725383,-2.6026564,-1.0300688,-1.9283748,-2.7706583,-2.3774705,-1.2680192,-2.6966219,-2.6262386
3.0686078,2.3911579,0.8196558,2.5871291,2.1966324,-1.6497620,-2.1409118,0.0118942,0.7932455,-1.0586566,-2.7056565,-3.1837177,-2.4833856,-2.4640081,-0.9718007,-2.0824103,-2.6080940,-2.2017186,-1.2607182,-2.5916691,-2.6107607
3.0719738,2.3773620,0.7153184,2.4082429,2.5937667,-1.9744515,-2.1028385,-0.1180263,0.6283500,-1.3185054,-2.6143610,-2.8773906,-2.6864927,-2.3141649,-1.4787310,-2.2325542,-2.4715483,-2.4847898,-1.6832637,-2.5971482,-2.3881345
2.8795805,2.1797068,0.8364903,2.0655594,1.7903556,-1.3255430,-2.1604376,-0.2285945,0.0279013,-1.7169076,-2.3325751,-2.2858055,-2.2886291,-2.3927748,-1.8780223,-2.5058932,-2.5245132,-2.4328845,-2.0498321,-2.3933072,-2.4544871
2.8559170,2.1983416,0.6218414,1.8754488,1.4886240,-1.1008039,-2.3969414,-0.2857508,-0.0917370,-2.0805190,-2.3463931,-2.4472427,-2.3067694,-2.3590600,-2.3010037,-2.4170122,-2.7144058,-2.6431472,-2.2355077,-2.5341499,-2.6280093
2.7380598,2.1915324,0.2165816,1.7084613,1.7545818,-1.2313973,-2.6423132,-0.5701373,-0.3530324,-2.0910296,-2.4320560,-2.7373073,-2.6751087,-2.5243318,-2.5551171,-2.9050493,-3.0367308,-2.7508597,-2.5327029,-2.9085753,-2.7551351
2.6061156,2.1895411,0.3618243,1.4503403,2.0947096,-1.7827126,-2.7260001,-0.8543836,-0.7753621,-2.3979359,-2.8943243,-2.8868523,-2.9154344,-2.8350663,-2.6087193,-3.2328961,-3.1820257,-2.7695417,-2.6138661,-3.1094472,-2.8093719
2.4250736,1.9135349,0.0544766,1.1983050,1.2394443,-2.1251395,-2.7291384,-0.9323940,-1.1033021,-2.7160969,-2.8562696,-3.4553390,-3.2463377,-3.0614879,-3.2102256,-3.1743326,-3.1817153,-2.9394350,-2.6440465,-3.1337867,-2.8362556
2.2733128,1.8242497,0.0186550,0.8692396,1.1939054,-2.7460170,-2.8324940,-1.1253160,-1.0940975,-2.9211414,-2.9213240,-3.6677678,-3.4256196,-3.1423771,-3.1430831,-3.0535128,-3.2588212,-3.0452173,-2.8961058,-3.0431941,-2.7240758
2.2812963,1.8521638,-0.1127322,1.0481858,1.3001289,-2.7849269,-2.8043554,-1.1475443,-1.1741159,-2.7467637,-2.9293814,-3.2592344,-3.7609959,-3.1328297,-3.0162065,-3.0961862,-3.1764472,-2.8859313,-2.9201648,-3.0626802,-2.7358060
2.2977073,1.9917552,-0.1787485,0.9372741,1.1548970,-2.8650904,-2.8541005,-1.1005772,-0.8883002,-2.4231124,-2.6866181,-2.7088740,-3.2492201,-2.9337878,-2.8640645,-2.9727254,-2.9208546,-2.6146786,-2.6954048,-2.8905928,-2.5742512
2.2758062,1.8669924,-0.3257701,0.9775842,1.1920794,-2.7312050,-2.8512046,-1.0242697,-0.7376319,-1.9861412,-2.8544905,-2.7803977,-3.1402564,-2.8809254,-2.6134903,-2.7322178,-2.8640783,-2.8076096,-2.6291466,-2.6566551,-2.7079558
2.4304252,1.9216331,-0.0526705,1.1500752,1.3877590,-2.9047787,-2.6905181,-0.9769869,-0.4948433,-2.0488386,-2.8730438,-2.6494946,-2.9232945,-2.9591136,-2.4394207,-3.1323159,-3.0904107,-2.8033409,-2.3854382,-2.8182883,-2.8498943
2.4407828,1.8855792,0.0470456,1.3165815,1.3317215,-2.4267979,-2.6188707,-0.7783066,-0.1375185,-1.7129395,-2.5911016,-2.4412966,-2.8327119,-2.8165047,-1.9272135,-2.7509849,-2.9762318,-2.5631630,-2.0504496,-2.7272658,-2.7587340
2.5885329,1.9790994,0.1591959,1.8861876,1.5003046,-1.9910420,-2.4741523,-0.4372341,0.1344138,-1.2526222,-2.5097535,-2.6727829,-2.8639965,-2.7690089,-1.5015162,-2.1177959,-2.7788544,-2.6972594,-1.8068630,-2.6305795,-2.9598925
2.7043328,1.9048053,-0.0897057,2.0012248,1.5949939,-1.9256585,-2.6770432,-0.2346146,0.3723907,-1.5700622,-2.4751222,-2.8629789,-3.0837250,-2.7991080,-1.6333616,-2.2149603,-3.1543856,-3.0945346,-1.8307246,-2.7247870,-3.1372769
2.6940105,1.8612936,-0.0569155,2.2533228,2.0050728,-2.6917133,-2.9605491,-0.3477040,0.3636916,-0.7303844,-2.3668532,-2.6415560,-3.2264848,-3.0616634,-1.3465555,-2.4560823,-3.1326764,-3.2376270,-2.0064931,-2.7503889,-2.8691561
2.6954422,2.0426474,-0.1117880,2.4660120,2.2503710,-3.0368457,-2.9113634,-0.1598064,0.6826668,-0.6077194,-2.2832127,-2.6456985,-3.3358552,-3.3274548,-0.9634922,-2.0340600,-2.8570240,-3.0593901,-1.6626973,-2.5356791,-2.7253942
2.8618727,2.1371741,0.0859160,2.2957482,2.4740431,-2.2135680,-2.5297482,-0.0364204,0.5638210,-0.7774929,-2.2578764,-2.8057649,-2.9635043,-2.9604709,-0.9991666,-2.0183461,-2.6572497,-2.6704237,-1.6083654,-2.3476410,-2.5238338
2.7751029,1.9416642,0.0893281,2.2741604,1.7861260,-2.5252972,-2.1924145,-0.1020370,0.5054392,-1.2283983,-2.3412366,-2.8354423,-2.6996098,-2.6347160,-1.4190825,-2.2791247,-2.4918535,-2.4732985,-1.7276199,-2.3510880,-2.1994271
2.6823215,1.8656141,0.1467085,2.1724367,1.1999836,-1.7922536,-2.1079199,-0.2400495,0.1186225,-1.1179758,-2.3942909,-2.3832982,-2.3933401,-2.4400079,-1.6654681,-2.0278511,-2.2700176,-2.0733197,-1.5709580,-2.0690732,-1.9209695
2.4913754,2.0207534,0.4808773,1.7873893,1.6568971,-1.0163486,-2.1295607,-0.3800573,0.2197757,-1.3929139,-2.4926715,-2.4722090,-2.0820706,-2.2183621,-1.7172506,-1.9664242,-2.2814045,-1.9885050,-1.4631335,-1.8646845,-1.8245078
2.4644456,1.9276968,0.5818921,1.6063279,1.3437554,-0.9629452,-2.1543343,-0.5838665,-0.2249552,-1.3968483,-2.4718070,-2.3000214,-1.8996706,-2.1148098,-2.2419901,-2.4866502,-2.3949840,-2.1509674,-1.9529105,-2.0487475,-1.9429578
2.4308381,1.7965076,0.2673258,1.3723774,1.4963111,-1.2899824,-2.2517838,-0.8674089,-1.1359479,-2.0566220,-2.7669163,-2.1063681,-2.3442581,-2.1690872,-2.8584080,-2.7806790,-2.7269979,-2.2883236,-2.5028939,-2.4880497,-2.0968530
2.2625697,1.6737263,0.2124847,1.1287464,1.1554279,-1.3069980,-2.2238808,-0.9975664,-1.1663215,-2.9022088,-2.6580174,-2.6952477,-2.5870862,-2.4670231,-3.2583232,-3.0378826,-2.8553827,-2.3804648,-2.9141638,-2.7308388,-2.3463414
2.3067777,1.9951924,0.0050952,0.7999501,1.1684445,-1.8950545,-2.3454688,-1.0715580,-1.3441261,-2.6778083,-3.0265911,-2.9905257,-2.8163271,-2.4643977,-3.6499650,-3.2277784,-3.0012686,-2.6419625,-3.0659070,-3.0471253,-2.7181604
2.2066998,1.9481481,0.3082622,0.7276207,1.2890475,-2.0317440,-2.4001398,-1.2393090,-1.9442552,-3.1432104,-3.3183224,-2.9105227,-2.8023853,-2.6141789,-4.2100911,-3.5732079,-3.2514966,-2.7847202,-3.3869624,-3.4207408,-3.0152259
2.1483436,1.8074067,0.2219576,0.5754074,0.5702133,-2.4690580,-2.5076938,-1.4018791,-2.1240435,-3.7452955,-3.0375795,-3.2994134,-2.9371274,-2.9195633,-4.1938372,-3.9238822,-3.5107818,-3.0344334,-3.4666610,-3.5554070,-3.2495203
2.1507893,1.8559548,0.0006383,0.5561102,1.1881820,-1.9924905,-2.7463691,-1.7165290,-2.2747076,-3.7081797,-3.0025935,-3.6752717,-3.1117988,-3.1577694,-3.7212062,-3.6810291,-3.6696765,-3.4235995,-3.5161486,-3.7335517,-3.3922489
2.1181114,1.7850869,0.2273488,0.6323861,1.0687973,-2.1881349,-2.8974428,-1.5483732,-1.8113161,-3.1673312,-2.6105740,-2.9709299,-3.2435873,-3.3650787,-3.1805434,-3.0651107,-3.3549004,-3.2382801,-3.2500830,-3.6658003,-3.3520675
2.2270591,1.8199228,0.1228769,1.0415076,1.1154433,-2.6895380,-2.7533033,-1.2118298,-0.8293023,-2.4467678,-2.6245282,-2.7945611,-3.2707896,-3.2577281,-2.3103886,-2.5217614,-3.1719000,-3.0219102,-2.5270395,-3.2145004,-2.9645293
2.4441528,2.0572138,-0.0616295,1.5963974,1.9373699,-2.2071662,-2.5881164,-0.5974988,-0.1835860,-1.3316910,-2.5134766,-3.1931875,-2.9299898,-2.9636450,-1.3089236,-1.9551549,-2.9895501,-2.9267306,-2.0366611,-2.5250192,-2.7434011
2.6521263,1.9418821,0.2117898,1.9274836,2.1156678,-2.3709915,-2.2683740,-0.3045190,0.5999233,-0.6797023,-2.6144912,-2.9073105,-2.6170416,-2.8105230,-1.0255756,-1.5447192,-2.7017758,-2.6182370,-1.5084678,-2.3250544,-2.4362094
2.7635105,1.8981612,0.3228965,2.1879706,2.1806672,-2.0677466,-2.0766940,-0.1529901,0.8172663,-0.2253910,-2.2565737,-2.0533006,-2.3806314,-2.5027611,-0.6137831,-1.2604598,-2.2712567,-2.0081389,-0.9640459,-1.8868139,-1.9967850
2.6745288,1.8208210,0.3688078,2.2160568,2.1890740,-2.1400938,-1.9902205,0.0407253,0.7696667,-0.3798477,-2.0412571,-2.0905056,-2.2506833,-2.1887066,-0.4580476,-1.1366435,-2.0718355,-1.9549133,-0.8577343,-1.5413287,-1.8516220
2.4306660,1.7032572,0.1673549,1.9535838,1.8153310,-2.3005970,-2.1673532,0.0124282,0.8025402,-0.4190622,-1.9157763,-2.3607061,-2.1325002,-2.4542894,-0.8580832,-1.2620319,-2.1650836,-2.2052798,-0.9355077,-1.6138268,-1.8235664
2.2773247,1.5173773,0.1124869,1.6254661,1.6534097,-2.1049085,-2.3378069,-0.1175498,0.4069163,-0.5432109,-2.0381110,-2.0359919,-2.1339512,-2.4314227,-1.2453499,-1.6349821,-2.3985159,-2.1371102,-1.4193578,-1.8176334,-1.8570235
2.2151122,1.7529593,-0.2607371,1.5952812,1.6379588,-2.6280117,-2.4731915,-0.3394028,0.4899274,-0.8658931,-2.3216815,-2.3356969,-2.3668485,-2.5614569,-1.3172668,-2.0494478,-2.5641189,-2.1626732,-1.5524871,-2.1518786,-2.0317981
2.3165858,1.6867596,-0.3410241,1.6339209,2.0233142,-2.1770201,-2.5400958,-0.3673136,0.6948198,-0.8658725,-2.6110332,-2.8180094,-2.5158968,-2.5795619,-1.4920192,-2.1229398,-2.5826030,-2.2091515,-1.8293568,-2.3839650,-1.9850830
2.4169807,1.7374353,-0.2604674,1.7528015,1.5827047,-2.2419162,-2.2293742,-0.2619697,0.4762469,-0.7347225,-2.5250952,-2.5784349,-2.5688138,-2.5087707,-1.4538733,-1.9674201,-2.5184202,-2.0369270,-1.9219235,-2.1504886,-1.8023435
2.4227004,1.9836036,-0.0057017,1.6811146,1.5138086,-1.8698440,-2.1836226,-0.1781649,0.3725696,-0.4820997,-2.5170376,-2.5203061,-2.1992707,-2.3006463,-1.3774958,-1.7625332,-2.2824032,-1.9458561,-1.7185013,-1.8712413,-1.7828672
2.3192704,1.9462006,-0.0296282,1.6258117,1.6970754,-1.3390884,-2.1527774,-0.2627401,0.2967055,-0.6160008,-2.1614487,-2.4433088,-2.0566475,-2.3241968,-1.3201187,-1.6920136,-2.0797372,-1.9295689,-1.5213463,-1.8216877,-1.9425995
2.3045740,2.0266330,0.2871301,1.5695632,1.6028771,-1.4918989,-2.1753912,-0.3341498,0.3959440,-0.5196857,-1.9977558,-2.6447713,-2.0466738,-2.1720941,-1.3776096,-1.8940688,-2.2575941,-2.1871128,-1.5779494,-1.9333079,-2.1640017
2.3158448,2.1036003,0.2050336,1.6096272,1.4390905,-1.8243172,-2.1582353,-0.3821457,0.0915593,-0.4204116,-2.0848510,-2.2166998,-2.2202201,-2.3776453,-1.4709214,-2.0052581,-2.4205663,-2.4153399,-1.9966911,-2.1558475,-2.4361417
2.3690970,1.9024872,0.2864110,1.6592283,1.6345232,-1.9188544,-2.0462856,-0.3504494,0.0190229,-0.2118862,-2.0646582,-2.6617258,-2.3596201,-2.6185644,-1.5388219,-2.3010924,-2.7272975,-2.5824568,-2.0235569,-2.4863787,-2.7488668
2.4504941,1.9217029,0.2162663,1.6489129,1.8689919,-2.2898331,-2.3651378,-0.3020911,0.0117582,-0.8584921,-2.1913366,-3.1062450,-2.4410832,-2.4157646,-1.7773914,-2.7829080,-3.2498012,-2.8650870,-2.3189123,-3.0135427,-3.1970422
2.4304283,1.9412982,0.2866500,1.4829720,1.3887916,-2.4292207,-2.4602983,-0.3593664,-0.1518205,-1.6452473,-2.4516551,-3.0161984,-2.3875704,-2.5978119,-2.3480105,-2.8656409,-3.2381115,-3.1510859,-2.8370233,-3.4346983,-3.6232698
2.3692157,1.8368329,0.0382502,1.4930218,1.3615572,-2.7831802,-2.6573296,-0.4534599,-0.3184181,-1.5782682,-2.6175549,-3.2557218,-2.5502691,-2.9300077,-2.4759228,-3.0550427,-3.2038844,-3.3169360,-2.9051831,-3.3347425,-3.5926571
2.4167340,1.8387513,-0.1267812,1.4863100,1.4237020,-2.2671010,-2.5751040,-0.3293678,-0.1904136,-1.5099442,-2.2807381,-3.2007442,-2.6111844,-2.9949481,-2.5362072,-3.0475080,-3.3838279,-3.1961241,-3.2653637,-3.4927902,-3.6374712
2.3146858,1.7604920,-0.1844750,1.1623249,1.5288095,-2.2553902,-2.6705072,-0.6028326,-0.4084844,-1.9878433,-2.2818103,-2.8392000,-2.5687394,-2.9803951,-2.7185943,-3.1489027,-3.2975841,-3.2651515,-3.7068655,-3.5000918,-3.6614549
2.2068007,1.7282851,-0.1627322,0.9019443,0.9713017,-2.9803188,-2.7447891,-0.8566790,-1.0317570,-2.1421771,-2.3412502,-2.8528852,-2.5654938,-3.1286201,-2.9847922,-3.3671823,-3.2577400,-3.2198880,-3.4358730,-3.2913632,-3.4240541
2.1815972,1.6555922,-0.1564371,0.7750553,0.9727795,-2.6980190,-2.9340081,-0.9755735,-1.5769668,-2.5841057,-2.1417263,-3.2004986,-2.7171087,-3.1360402,-3.0421619,-3.4208796,-3.3744540,-3.3576982,-3.4717388,-3.2904794,-3.6212637
2.1314099,1.5636638,-0.3177312,0.8724058,1.6441227,-2.7193334,-2.9611371,-1.1013222,-1.5393417,-2.2706835,-2.6560855,-3.3137774,-2.8921854,-3.4247820,-2.8477132,-3.7542560,-3.6748357,-3.6120386,-3.5701439,-3.5856729,-3.5926125
2.0304775,1.6721675,-0.5495450,0.6335425,0.9934320,-2.9083025,-3.0837777,-1.0042195,-1.2727464,-2.7376907,-2.9268644,-3.1949914,-3.0940678,-3.5289841,-2.8125660,-3.4509981,-3.4732363,-3.4865117,-3.2755041,-3.2846770,-3.2788575
1.9866931,1.6606821,-0.6635411,0.8434127,1.1354417,-3.0286677,-3.0264509,-0.8613577,-1.1368680,-2.8170030,-2.6375806,-3.3121579,-3.0491283,-3.6466537,-2.6681283,-3.1051183,-3.0223989,-3.2613518,-2.8861625,-2.8382599,-2.7938547
1.9827694,1.5840853,-0.4939750,0.9921160,1.6097052,-2.8205948,-2.9959917,-0.6147966,-0.6241216,-1.7226112,-2.1842360,-3.0669239,-2.9588511,-3.5774298,-1.9028293,-2.5553212,-2.5769887,-2.9205077,-2.2006223,-2.2262831,-2.4940681
2.0258849,1.4795332,-0.4655221,0.9135135,1.3963788,-3.4244137,-2.7471538,-0.6047527,-0.3988611,-0.9873183,-2.2022927,-2.3880389,-2.7619486,-3.2673008,-1.7642312,-2.1701047,-2.4962440,-2.8301835,-1.8262688,-2.0648203,-2.3866677
1.9751794,1.4192082,-0.4047754,0.7595128,1.2954621,-2.7978754,-2.4433012,-0.7273889,-0.9552796,-1.1640273,-2.2254238,-2.5533388,-2.4632084,-2.9867597,-1.9011617,-2.4315438,-2.3694470,-2.4164629,-1.7259073,-2.0816011,-2.1651080
2.1268210,1.8166360,-0.2509814,1.0019171,1.4023715,-2.6640344,-2.5737176,-0.6710971,-0.4051958,-1.7803314,-2.4633150,-2.9057376,-2.4448338,-2.9356682,-1.8868244,-2.5485089,-2.6042855,-2.4312177,-1.9392289,-2.1776578,-2.1352808
2.1502662,1.6457959,-0.4263686,1.2860161,1.6905893,-3.1137192,-2.7243099,-0.6226282,-0.2214125,-1.9456617,-2.4042799,-2.6948161,-2.3069112,-3.0310349,-1.2779822,-2.5891862,-2.6631198,-2.3474042,-1.8078830,-2.1005661,-2.0739183
2.1830392,1.6113520,-0.2527113,1.3073012,1.5783433,-2.5512257,-2.4193907,-0.4671089,0.1078528,-1.5230777,-2.4911766,-2.7727630,-2.3267202,-2.7613823,-1.1745197,-2.8122923,-2.7185905,-2.1822648,-1.6912086,-2.0941277,-2.2450523
2.2568429,1.8480636,0.1182727,1.1822305,1.8236252,-1.9779814,-1.9709672,-0.3239775,-0.1330499,-1.5354733,-2.7922246,-3.2442160,-2.2502027,-2.5163803,-1.4476038,-2.9623339,-2.8287792,-2.0960183,-1.8197644,-2.5373061,-2.4280667
2.2483428,2.0827878,0.4596974,1.3581471,2.0679791,-2.4025764,-1.6410456,-0.2766981,0.0478507,-1.4916755,-2.7335417,-2.9952185,-2.1764872,-2.1709695,-1.2915568,-3.0846291,-3.0223379,-2.3303514,-2.0831690,-2.8656290,-2.6836383
2.3500426,2.0348146,0.9565304,1.6237303,2.0225523,-2.1362123,-1.4984534,-0.2580659,0.2651387,-1.4400065,-2.7724991,-2.7634382,-2.0717723,-2.0478442,-1.3517640,-3.0236418,-3.1319799,-2.4448872,-2.2066281,-2.8706009,-2.7146258
2.2012243,1.8188292,0.8051695,1.5284971,1.5215626,-1.9565769,-1.7326900,-0.3511001,-0.1045246,-1.3561791,-2.6973867,-2.9913323,-2.1581573,-2.2282221,-1.5424854,-2.8422346,-3.1188374,-2.4246733,-2.2178900,-2.8172271,-2.8130696
2.1829152,1.9132789,0.6146857,1.3354335,1.2750860,-2.0849054,-1.9178674,-0.4847984,-0.3815396,-2.2012994,-2.2498534,-3.1864989,-2.2761030,-2.4388590,-1.8004299,-2.7343369,-2.8240206,-2.6799242,-2.3791504,-2.7691133,-2.8725305
2.0440412,1.6908475,0.2936657,1.1127402,1.4515074,-1.8045923,-2.0045233,-0.5009373,-0.1299590,-1.7937936,-2.1985061,-2.6740868,-2.3931575,-2.5237291,-1.6931500,-2.7640498,-2.8097653,-2.6524787,-2.5770264,-2.8350229,-2.6831586
2.0299916,1.8032253,0.5302876,0.9123996,1.7015904,-1.8385019,-2.1021616,-0.1063093,-0.1122759,-1.4382435,-2.4962587,-2.6046445,-2.3462176,-2.5881877,-1.6315321,-2.6037195,-2.7061367,-2.5866129,-2.5878844,-2.8034661,-2.5297997
2.1241567,1.9681276,0.7091734,0.9604179,1.4260147,-2.2372644,-1.9224921,-0.1847985,-0.5648157,-1.8768122,-2.2073526,-2.5880837,-2.2659531,-2.4600608,-1.8888104,-2.3622923,-2.4692678,-2.6556261,-2.5182500,-2.8050258,-2.5063362
1.9234257,1.8120186,0.9569464,0.6660727,1.4997919,-2.2901816,-1.9226973,-0.3854343,-0.5865279,-1.8859164,-2.2989092,-2.5187581,-1.9988686,-2.4364941,-2.0372357,-2.3037093,-2.5615273,-2.5760407,-2.4229310,-2.6166971,-2.6215460
1.9053388,1.8746903,0.8938132,0.5957662,1.4112146,-2.3637741,-1.8494232,-0.3841431,-0.4313241,-1.6936123,-2.4811199,-2.4653726,-1.8865559,-2.5613649,-1.9062668,-2.3837595,-2.5809720,-2.3726244,-2.4426219,-2.4833593,-2.5679798
1.9505476,1.9133679,0.5202091,0.7968970,1.8584327,-2.8574703,-1.8643605,-0.2568372,-0.6990352,-1.5835243,-2.1050920,-2.6999056,-2.1359744,-2.5971572,-1.7889862,-1.9835063,-2.3149149,-2.2370505,-2.0889189,-2.2955499,-2.1860316
1.7323620,1.5604975,0.4125395,0.3357655,1.4809421,-2.4215541,-1.8931757,-0.5860913,-0.4813281,-0.9678046,-2.0453238,-2.3135521,-1.8130062,-2.3716474,-1.6735841,-1.6884891,-1.9560609,-1.8069407,-1.7578949,-2.0757992,-1.6279566
1.5460774,1.3048218,0.3647397,0.5704277,1.2582581,-2.2194204,-1.4217404,-0.5964343,-0.5727935,-0.6923987,-1.8830773,-1.6300992,-1.5077156,-2.0280926,-1.3162854,-1.5940009,-1.9906125,-1.5284954,-1.6944710,-1.8537354,-1.4740089
1.4083962,1.1714472,0.6140425,0.7191641,1.0412077,-2.0641007,-0.9937868,-0.2234206,-0.4554927,-1.3431245,-1.7878265,-1.9089015,-1.4388307,-1.6329138,-1.1010892,-1.3815879,-1.7943486,-1.3189940,-1.4429489,-1.6935754,-1.4634061
1.1898915,1.0140930,0.4538812,0.4562063,0.5118566,-2.1409028,-0.8962941,-0.2154718,-0.3813326,-0.9878007,-1.6760635,-1.8316262,-1.3970069,-1.5822318,-0.8762295,-1.4676594,-1.3826882,-1.1555808,-1.3679254,-1.4484333,-1.3113692
0.9888878,0.7759393,0.4206342,0.5583093,0.0428414,-2.0239804,-0.6682093,-0.3168826,-0.1955533,-0.7761077,-1.4175351,-1.1040814,-1.0471988,-1.1645432,-0.7369930,-1.5186299,-1.4524302,-0.9480370,-1.2878940,-1.4614691,-1.2806966
0.9227186,0.6844950,0.3933385,0.4256038,-0.0972620,-2.7120550,-0.5721639,-0.2481644,-0.2272969,-0.5880274,-1.4660579,-1.3683944,-1.0178792,-1.0287666,-0.7628803,-1.4598156,-1.6303983,-1.0224897,-1.2219408,-1.5184084,-1.3165154
0.8845671,0.6571292,0.4852710,0.5086311,0.3338617,-2.0638292,-0.3795566,-0.1815094,-0.2561667,-0.4237335,-1.8032137,-1.9596722,-0.8011255,-0.8139064,-0.5021584,-1.3465884,-1.5869312,-0.8361531,-0.9532857,-1.4072375,-1.2130711
0.7002065,0.4043420,0.3651589,0.3797074,0.2992601,-1.6033617,-0.3643231,-0.1982816,-0.2874945,-0.4464521,-1.6002654,-1.5409448,-0.9605758,-0.6313301,-0.6033605,-1.5608488,-1.7316420,-0.7299183,-0.8482144,-1.5639255,-1.2114766
0.4074581,0.0534368,0.0999554,0.2264869,-0.1969706,-1.6293145,-0.2912720,-0.2521794,-0.4435281,-0.8217466,-1.6474894,-1.4196186,-0.7961931,-0.6383715,-0.5183166,-1.6239835,-1.6670719,-0.7385874,-0.9777792,-1.5229635,-1.1971471
0.3102788,0.0136073,0.0912012,0.1746946,-0.5579867,-1.2542422,-0.0623955,-0.1106456,-0.4570282,-0.8170756,-1.4855564,-1.4418370,-0.3869044,-0.5046635,-0.1740897,-1.3929944,-1.3306574,-0.4738168,-0.8514404,-1.1742343,-0.9814766
0.0135519,-0.0282805,0.2110415,0.1301643,-0.2920050,-1.1097373,0.3374884,-0.1285889,-0.3641541,-0.1927226,-1.1039716,-0.8901559,-0.0456815,-0.3572112,-0.3562662,-1.0525960,-1.0780343,-0.2745833,-0.6937340,-0.9735074,-0.9318665
-0.1774906,-0.0505345,0.6901399,-0.0624208,-0.5644400,-0.9124323,0.6975945,-0.1943691,-0.4512599,-0.2094260,-1.0992851,-0.7218770,0.2284167,0.1682213,-0.6829073,-0.7765146,-0.7401029,-0.0304212,-0.5767752,-0.9638203,-0.7608258
-0.4765046,-0.3170997,0.0977323,-0.5730993,-0.9322065,-0.8214566,0.5253522,-0.3417971,-0.7668901,-0.3035254,-0.9059801,-1.1187305,0.3883444,0.1331272,-0.4387631,-0.6546360,-0.3821852,0.0245420,-0.4447412,-0.5035426,-0.4541769
-0.5751106,-0.5960349,0.1510001,-0.6478338,-0.8187260,0.0250163,0.7497695,-0.4515797,-0.8258237,0.0443009,-1.0529597,-0.9015540,0.5096319,0.1424493,-0.6825294,-0.7905951,-0.3312030,0.0197222,-0.3532148,-0.5810674,-0.4372838
-0.6745725,-0.8515694,0.0511191,-0.5895332,-1.5960283,-0.2913195,0.8190995,-0.4513579,-0.4487602,-0.2429375,-1.2277600,-0.3520012,0.6298022,0.2856543,-0.4383155,-0.2755173,-0.0702148,0.3258675,-0.2456059,-0.4812241,-0.2407327
-0.8783059,-0.9456974,-0.1596002,-0.8349330,-1.6149172,-0.7147421,1.0056492,-0.4567500,-0.6659539,-0.4416481,-0.8974766,-0.2076481,0.6234978,0.5047731,-0.1580676,-0.0580309,0.1248856,0.7354695,0.0441236,-0.0312142,0.1565952
-0.9853835,-0.8056147,-0.1331771,-1.0152049,-1.5711197,-0.5221801,1.0061677,-0.4595008,-0.5645329,-0.0012338,-0.6377383,-0.3511334,0.7543516,0.6942260,-0.0534704,0.1596940,0.2279822,0.6736930,0.3248378,0.2197972,0.3036753
-1.1766688,-1.2016233,-0.0716848,-1.2661450,-1.8652328,-0.0918842,0.8925735,-0.5435125,-0.3433214,-0.2119981,-0.2707751,0.3339855,1.0013535,0.8208022,-0.2363536,0.4151649,0.5172807,0.8055573,0.4616962,0.3971940,0.3807236
-1.3693568,-1.3720200,-0.3444051,-1.2557585,-2.1789653,-0.5340282,0.8624554,-0.5703597,-0.4583755,-0.6781185,-0.1118640,0.7255530,1.0797199,0.8638588,0.0245658,0.5664486,0.6175749,0.9415071,0.5439202,0.5028655,0.5587944
-1.2146947,-1.0942401,-0.3026361,-1.0258240,-1.9268191,-0.5332281,0.9026226,-0.4579351,-0.3207380,0.1150786,0.0166221,0.4493528,1.1925098,0.8542404,0.3190942,0.6747347,0.6068317,1.1452287,0.6599301,0.5778280,0.5566677
-1.2368782,-1.2763808,-0.6223910,-0.9164010,-1.7450087,-0.3228528,0.8210388,-0.2567397,-0.0246777,0.2430912,-0.0735679,0.5206555,1.0754666,0.8940151,0.6459351,0.4464399,0.6002856,1.0312746,0.6268526,0.5036504,0.4996851
-1.3529987,-1.4431527,-0.7108989,-0.9055402,-1.9585457,-0.5923136,0.7765064,-0.2979484,-0.1193908,0.3766223,-0.1646145,0.5987837,0.7690769,0.8113636,0.3322864,0.3237343,0.6146848,0.7689858,0.7604722,0.4449143,0.4185787
-1.3692248,-1.1372771,-0.8305257,-0.9194939,-1.5311389,-0.5936477,0.7128778,-0.2856962,-0.2637651,0.3828413,-0.1895933,0.2787079,1.0395143,0.7140424,0.1649557,0.5562654,0.5421566,0.7912631,0.9180582,0.5184979,0.5138573
-1.2756153,-1.2224289,-0.7867056,-0.9432685,-1.5664871,-0.9349023,0.7286600,-0.2853087,0.0510646,0.4204813,-0.0782217,-0.1064430,0.9036301,0.6289017,0.0225195,0.7515616,0.4561547,0.7215115,0.8607700,0.4971803,0.4576083
-1.3318467,-1.5195693,-0.8120745,-0.9701164,-1.3843166,-0.9416317,0.6621084,-0.2936323,0.0021958,0.5772539,0.0621945,0.4014858,0.9630516,0.7167515,0.0774127,0.4791395,0.3299021,0.5932826,0.6788367,0.4556759,0.5516341
-1.3282825,-1.4156829,-0.9017246,-0.9248966,-1.4737080,-0.6740376,0.4835717,-0.2053989,-0.1189619,0.0869706,-0.1246772,0.2898900,0.8496783,0.5235010,0.1744541,0.3648820,0.3825693,0.5773246,0.5425101,0.5173711,0.5713560
-1.3108745,-1.2349652,-1.1378517,-0.9443245,-1.4363264,-0.6332771,0.4317084,-0.2840897,-0.2215925,0.0625644,0.0345238,-0.1148889,0.8899503,0.3381118,0.4759838,0.5341207,0.4557286,0.6024910,0.8089502,0.5779094,0.5807834
-1.3241308,-1.1997628,-1.0162232,-0.8765746,-1.5545923,-0.7012646,0.4828914,-0.4715045,0.1142092,0.2741581,-0.0218843,0.3426862,0.9906275,0.6090768,0.5519956,0.3930327,0.4852429,0.5361702,0.6997805,0.4816090,0.6251104
-1.3650399,-1.3650184,-1.0507268,-0.9154195,-1.7270298,-0.5730591,0.7092161,-0.4293782,-0.1959671,0.1776147,-0.1702606,0.3997209,0.8360049,0.6292832,0.4862346,0.4919745,0.5376077,0.7643685,0.7464007,0.5963053,0.7134566
-1.4319842,-1.4008665,-0.7024644,-0.9000345,-1.3241985,-0.3087726,0.7008784,-0.2576626,-0.2639036,0.3836188,0.0368153,0.1789555,1.1848091,0.8288821,0.4457453,0.4985754,0.5226169,0.9553100,0.9180529,0.6902729,0.8628880
-1.3433090,-1.2248236,-0.5999470,-0.8104311,-1.5822810,-0.3093913,0.6620240,-0.1774973,0.1003424,0.1606645,0.0035119,0.2549152,1.2454891,0.9258692,0.3670857,0.6481126,0.6746638,1.1342703,0.9197708,0.7431707,0.8124338
-1.3605553,-1.4969862,-0.9898401,-0.8548511,-1.6088595,-0.7173308,0.7940497,-0.2570227,0.0107213,0.2785058,-0.0172159,0.4322191,1.3379151,0.9855664,0.1363082,0.7854571,0.5838206,1.2064184,0.8855253,0.6355218,0.7512033
-1.4212604,-1.4757830,-1.1014131,-0.9420986,-1.8892335,-0.4504186,0.8180193,-0.2843132,-0.3246187,0.2372739,0.1921069,-0.0225711,1.3440721,0.9504709,0.1441751,0.3443390,0.5330617,1.2873018,0.6525797,0.5554335,0.7571126
-1.4255182,-1.5179464,-0.9368097,-0.9941902,-1.8200963,-0.1618767,0.7065950,-0.2455016,-0.2144566,-0.4781467,0.0032177,0.1492416,1.2213950,0.8989813,0.0335945,0.5384941,0.6004987,1.1633729,0.5359858,0.4987350,0.9164374
-1.4157870,-1.5908953,-1.0500804,-1.0732063,-1.4371717,-0.7088719,0.6455072,-0.3074408,-0.0270658,-0.0596083,0.0560127,0.7714918,1.0097533,1.0729333,0.0315938,0.3871250,0.7572368,1.2856282,0.6859534,0.4978225,0.8721585
-1.3976345,-1.3909373,-1.1476235,-1.1831977,-1.9493545,-0.3286725,0.7726428,-0.2327128,-0.3186401,0.1413389,-0.1026362,0.5558001,0.8426549,0.9656595,0.1377550,0.3392524,0.5483977,1.2268595,0.6373631,0.3738097,0.8590440
-1.4116088,-1.4296944,-1.1740655,-1.4282346,-1.9611486,-0.0629038,0.7319596,-0.2225792,-0.8263091,-0.3573403,-0.1321985,-0.0277910,0.8796647,0.8751159,0.1412753,0.3000906,0.3634962,0.8503432,0.6097565,0.3198660,0.7070722
-1.3317730,-1.6655903,-1.1379026,-1.2245959,-2.1268487,-0.0780517,0.7180607,-0.1025436,-0.4441012,-0.1566483,-0.2318402,0.3702554,0.8029309,0.9331991,0.1405989,0.4853819,0.4868090,0.9684260,0.3734393,0.4024994,0.7057103
-1.2752535,-1.5673805,-1.2319208,-1.0765659,-1.8726296,-0.2071182,0.8297185,-0.0974320,0.1563029,0.2305368,0.0167473,0.5899249,0.9125627,0.9975194,0.3644654,0.9515826,0.5496436,1.0634711,0.7350143,0.5560699,0.9255537
-1.3412852,-1.5571672,-1.1365278,-1.2668747,-1.4154181,-0.3100084,0.7710286,-0.1719032,-0.1549554,0.5761399,0.1761640,0.7125494,1.0770103,1.0662611,0.4688212,1.0239954,0.8622866,1.2833408,1.1483529,0.8127714,0.9920918
-1.4626961,-1.7018465,-1.4404727,-1.5056887,-1.9232347,-0.2062968,0.7777466,-0.3058573,-0.1368598,0.2355523,0.1048591,0.8520024,1.1187985,0.8819411,0.3668831,0.6929138,0.8835490,1.1578552,1.0157654,0.7946818,1.0999087
-1.4922494,-1.7567739,-1.3161498,-1.7197561,-2.0866861,-0.1628952,0.7056833,-0.4386887,-0.5390266,0.2193154,0.1911676,0.9140188,1.1474934,0.8099392,0.1796727,0.7422552,0.8085668,1.2835797,0.8074867,0.6696218,1.0874931
-1.4310061,-1.6130403,-1.2598560,-1.4652810,-1.7116606,-0.2308404,0.7511888,-0.3492475,-0.5733266,-0.3806430,0.3562634,0.3584115,1.0100675,0.9376877,0.2984568,0.8029117,0.9475943,1.2500889,0.8424020,0.9475083,1.0360161
-1.4869539,-1.5188792,-1.3337140,-1.5005198,-1.3715721,-0.0987498,0.6260208,-0.2980963,-0.3128657,-0.2849436,0.3239233,0.3471108,1.0047843,0.7357160,0.0914287,0.6753920,0.7971053,1.0103807,0.8869506,1.0043923,0.9897547
-1.5509508,-1.7325010,-1.3896598,-1.5826455,-1.5965049,-0.2660557,0.4592452,-0.5149612,-0.6729528,-0.0464291,0.1495557,0.7601619,0.9232040,0.6455570,-0.0590342,0.5504293,0.7935930,1.1590497,0.3586909,0.8794736,1.1030537
-1.5120859,-1.8300850,-1.5031981,-1.5454870,-1.4493936,-0.0139556,0.5709471,-0.5446781,-0.4999302,-0.3989934,0.3699855,0.5574857,0.8203447,0.7409471,-0.0418916,0.7298613,1.0171527,1.1328298,0.6648653,0.8695261,1.0858285
-1.5219039,-1.6362127,-1.3116943,-1.3884361,-0.9576606,-0.3074479,0.4998334,-0.3254154,-0.7076840,0.3544430,0.5808007,0.6011456,0.9352815,0.8228339,0.1116649,0.8646050,1.4626129,1.3007410,0.8066444,1.0020415,1.3551582
-1.4202483,-1.6929026,-1.4970015,-1.0553955,-1.0161617,-0.0420779,0.6069108,-0.1316681,-0.6133263,0.9464495,0.5551352,0.8663754,1.2339487,1.0843395,0.2038792,0.7631861,1.3536292,1.4471045,0.8664086,1.1764461,1.3877796
-1.4502100,-1.6583986,-1.4290822,-1.1772046,-1.4875475,-0.3491171,0.7217506,-0.0472080,-0.2309725,1.0941513,0.4955030,0.9908136,1.1969984,1.0099710,0.4297438,0.7868438,1.2401612,1.4268825,0.9729214,1.2134613,1.2105788
-1.3574654,-1.5199881,-1.0157307,-1.1288229,-1.4143929,-0.1017584,0.8733063,-0.1291310,-0.3759861,0.8728390,0.7665481,0.7916082,1.4259090,1.0728756,0.1101790,0.9075884,1.2130132,1.1844057,1.0046914,1.1178496,0.9790338
-1.2956051,-1.5361018,-0.9741727,-1.0532097,-0.9839698,0.0383541,0.8911475,-0.2125476,-0.4020338,1.0588557,0.5113297,0.5854811,1.2962483,1.0268291,-0.0851126,0.6957887,1.0426310,1.1696966,1.0000731,1.0873216,1.0342911
-1.4011804,-1.7094719,-1.0481035,-1.0809339,-1.1516640,-0.3160861,0.8168525,-0.2822084,-0.0871410,1.0384612,0.3365434,0.8672364,1.2180688,1.1699327,0.1860639,0.4541334,1.1541607,1.3001193,0.9043261,0.9947547,1.0769006
-1.3281906,-1.4801345,-0.7973332,-1.0654819,-0.7718333,0.3163963,0.7255338,-0.1268474,0.0111778,1.1275263,0.5425200,0.5744585,1.1809208,0.9754237,0.5342162,0.9120153,1.1743448,1.2746369,1.0304110,0.9768804,1.1297179
-1.2667038,-1.2388657,-0.8117146,-1.0144502,-1.0723813,0.1060453,0.8749955,0.0501743,0.0938828,0.6298147,0.5275413,0.5724056,1.1173115,1.0188563,0.5253576,1.0483568,1.1168872,1.2356658,1.0358551,0.9007322,1.0394478
-1.2418109,-1.2953628,-0.8936573,-0.9982331,-1.2364380,-0.1075263,0.7603742,0.2289266,0.0669186,0.3039906,0.4272014,1.1280438,1.0951730,0.9768030,0.2671219,0.9449602,0.7800909,0.9679017,1.0082124,0.8651246,0.7213168
-1.2529960,-1.1915830,-0.6402128,-1.2693659,-1.4741498,0.3308895,0.6732777,0.0515961,-0.1119946,0.0654701,0.5515508,1.0709277,1.0406362,0.9106547,0.3385653,0.7764416,0.9493780,1.0047052,0.7423199,0.5294552,0.7163067
-1.2410210,-1.1779193,-0.5670120,-1.0203424,-1.4596186,1.0126189,0.7752144,0.0561847,-0.5409769,-0.3410449,0.6193032,0.8952091,1.0289810,0.9153560,0.1933754,0.6374249,1.1463646,0.7963731,0.6656777,0.4591114,0.7564747
-1.3046265,-1.4823524,-0.6183024,-1.0873692,-1.3990756,0.9468070,0.9209881,0.0239348,-0.1997132,0.0849628,0.3335721,1.1396592,0.9913433,0.8798121,0.0340001,0.3048770,0.9445714,0.9400647,0.6372876,0.5729998,0.7446580
-1.3252282,-1.5505902,-0.6885334,-1.1152281,-1.5385886,0.2270644,1.0050445,-0.1015640,-0.1198560,0.2100603,0.2818528,1.2441401,1.0709378,0.9567980,0.4029885,0.6006035,0.8706610,1.1093750,0.6816773,0.6455811,0.8938461
-1.3002691,-1.4232546,-0.7475279,-1.1232187,-1.5254313,0.0735797,1.0217053,-0.0469749,-0.3541423,0.4120403,0.4512885,0.8075989,1.1858356,0.9917943,0.1978380,0.5852358,0.9497723,0.8818043,0.6682659,0.5490657,0.8134633
-1.3730524,-1.6385981,-1.1486156,-1.2724347,-1.2291502,0.3244002,0.9551835,-0.0659248,-0.3613095,0.1955343,0.6848675,0.8386975,1.1446162,1.0866704,0.0821330,0.5120746,0.9380392,0.7794309,0.4132903,0.5986944,0.6225544
-1.4812998,-1.6891983,-1.1088277,-1.3005568,-1.1514856,0.0461170,0.8541805,-0.2994076,-0.6820266,-0.3151405,0.4986347,0.9729069,0.9938506,0.8247223,-0.1445407,0.1179317,0.6413072,0.8922808,0.4037971,0.6239996,0.5791646
-1.4634650,-1.3877510,-1.0085118,-1.3493046,-1.3953379,-0.0961956,0.7742350,-0.2472264,-0.6532041,-0.3730000,0.1405124,0.6080014,0.8293015,0.9891705,-0.2187425,0.0501450,0.6825125,0.9343008,0.5160693,0.6596174,0.6369270
-1.4125718,-1.4002458,-0.8110369,-1.3128115,-1.2638988,-0.2597934,0.8775940,-0.2505638,-0.7958751,-0.2701761,-0.0576756,0.6734872,0.8322788,0.9168544,0.1428335,0.2180710,0.6833043,0.8333070,0.4749560,0.4291165,0.6956982
-1.4018052,-1.4755757,-0.7705910,-1.1254743,-1.3892159,-0.0545886,0.7414398,-0.1213184,-0.4399496,-0.1739430,-0.0072136,0.7851378,1.1212219,0.9448037,0.3165272,0.3559838,0.8190280,1.0237862,0.9327837,0.5459173,0.8052126
-1.3751353,-1.4111383,-0.8306506,-1.1065553,-1.8391478,0.2349011,0.9324114,-0.0475853,-0.4118809,-0.0825636,0.2478365,0.5087471,0.9459692,0.9628028,0.3773375,0.3659117,0.8260044,1.0106902,0.8821935,0.3074306,0.7530217
-1.3847082,-1.2359846,-0.7939367,-1.1376177,-1.4094619,-0.1987336,1.0992345,0.1765434,-0.6672648,0.5235687,0.3753863,0.3572238,1.0990070,0.9921764,0.6002889,0.6639888,0.7519385,1.0598514,1.1030532,0.5057012,0.9539003
-1.3548207,-1.3266343,-0.7233933,-1.1519508,-1.2084621,0.1016505,1.0995092,0.2322098,-0.1443532,0.3596556,0.4263629,0.7075822,0.9747537,1.1456327,0.5489650,0.5269115,0.8399541,1.0729617,1.4774275,0.6658838,1.0266809
-1.2807715,-1.2581890,-0.6498988,-1.0927029,-1.1660049,-0.0698083,1.0545028,0.1119840,0.0483870,0.3085264,0.3303623,0.7771459,1.0759690,1.2841239,0.6380717,0.7792023,0.9004257,1.1617968,1.5653898,0.8034932,0.9340072
-1.3854250,-1.3179353,-0.5339893,-1.1504129,-0.4669533,-0.3042800,0.9929332,0.1594326,-0.1747924,0.4710132,0.3447957,0.2199849,1.1217800,1.3085378,0.7325116,0.7019136,0.9599254,1.2334049,1.7574557,0.7539133,0.8783460
-1.3887115,-1.3961350,-0.7089463,-1.1513566,-0.7377820,0.2884975,0.9917960,0.0317038,-0.3101252,0.2721888,0.3533671,0.3458031,1.0044965,1.1890994,0.5553875,0.3476726,0.6522529,1.1337829,1.5399973,0.6626443,0.6676889
-1.3695364,-1.3782111,-0.6884479,-1.2787825,-1.3295088,-0.2327323,0.9431873,0.0249873,-0.5726161,0.0011260,0.0618201,0.6622263,1.2272239,1.2206988,0.2851618,0.2117109,0.5634314,1.1590488,1.2136325,0.3762564,0.6610947
-1.3678886,-1.3964685,-1.0111064,-1.1773221,-1.0637357,-0.1247858,0.7425796,0.0116650,-0.7087726,-0.3476285,0.0312147,0.2620723,0.8713610,1.0810199,0.3285342,-0.0884054,0.4309087,0.8776882,1.1124479,0.3222508,0.5985938
-1.3282949,-1.4069059,-0.7730809,-1.2388295,-1.1235378,0.5702654,0.6969622,0.0185003,-0.6977006,-0.3423167,0.1692609,0.2867590,0.6810236,0.9011189,0.3630234,-0.2003998,0.6397673,0.8649448,1.2233086,0.2463928,0.6197480
-1.3383898,-1.4161241,-0.8351176,-1.1405209,-0.5809472,0.0270393,0.7797108,-0.0003362,-0.4551856,-0.0066627,-0.0632249,0.8455875,0.8740247,0.9420819,0.1913260,-0.0260955,0.4952535,0.9985405,1.0380353,0.2541661,0.6069160
-1.3564680,-1.2610303,-0.8513812,-1.1557996,-0.9400083,0.2549739,0.7631363,0.0631996,-0.1762230,-0.5822541,-0.1043204,0.3451851,0.9787764,1.0101919,0.5316437,0.2523456,0.6126042,1.0255492,1.3446070,0.3338518,0.7008087
-1.3871647,-1.3038131,-0.6189127,-1.3291458,-1.4087964,0.5446920,0.8626557,0.1258557,-0.2651005,-0.4697136,-0.0084918,0.4769785,0.9981372,1.0724902,0.1897688,-0.0223893,0.6920042,0.9362060,1.2279569,0.5012493,0.8992226
-1.3683151,-1.3381741,-0.6260012,-1.2208971,-1.5523263,0.6771264,1.1494089,0.0192524,-0.4894524,-0.3440128,-0.2542291,0.6598665,1.1471902,1.2109176,0.2328451,0.0227793,0.9670997,1.0286483,1.1437590,0.4570063,0.8710185
-1.2898833,-1.3991752,-0.4712976,-1.2375394,-1.6275148,0.5495790,1.2298133,0.0556714,-0.4122678,-0.5077335,-0.1110541,1.0193647,1.2396175,1.2424903,0.4194060,0.5068544,0.9620179,1.3875130,1.1979877,0.3287583,0.8627092
-1.2058247,-1.0635984,-0.3084299,-1.1107332,-1.0441042,1.3965523,1.2905859,0.0832488,-0.4273914,-0.2228127,-0.1220011,0.8078296,1.5507215,1.4765327,0.4923038,0.5565709,1.0601652,1.5083983,1.5072984,0.7230498,0.9582174
-1.1916661,-1.0951431,-0.2236774,-0.8892879,-1.0031701,0.8663132,1.2735744,0.1057392,-0.1465558,-0.1494051,0.1899123,0.9321094,1.5551010,1.3820510,0.5586923,0.4818699,0.9825227,1.4096376,1.5192338,0.6627796,1.0458044
-1.2028843,-1.2746983,-0.4548663,-0.7137784,-0.5097211,0.7184648,1.4098589,0.3329480,0.1478341,-0.0738345,-0.0641719,0.8518707,1.2608575,1.3242661,0.7391871,0.8247253,0.9690547,1.3982729,1.5184959,0.8774402,1.1471941
-1.0647786,-1.2351065,-0.4704481,-0.7376221,-0.7339862,0.6371390,1.3935758,0.5510238,0.3356644,0.1118942,-0.0115619,0.5013668,1.3558736,1.2656837,0.8837304,1.1186745,1.0535240,1.5478157,1.7324486,0.9156455,1.1768891
-1.1080930,-1.3118628,-0.4630922,-1.0827087,-1.0003179,0.7645699,1.0965931,0.5209326,0.2531936,0.4835163,0.1223112,0.6676993,1.1791273,1.4515908,0.9794652,1.1249150,1.3088974,1.2407116,1.8741641,1.2626498,1.1302048
-1.2834882,-1.6601839,-0.4222564,-1.0675265,-1.3320254,0.0631100,0.9523318,0.3487704,0.3173891,0.3830820,0.4765398,1.1906317,1.0809202,1.2398793,0.7381778,1.0606992,1.1676266,1.1009407,1.8538456,1.1706073,1.1191514
-1.3525331,-1.4952940,-0.8988521,-1.0258330,-1.3708031,-0.3685310,0.9438268,0.2454394,0.0042885,0.3489057,0.6224213,0.9275188,1.0269104,1.0647433,0.8294384,1.1281679,1.1081629,1.3488123,1.7261910,1.1088147,1.2440873
-1.4002930,-1.3547677,-0.8664675,-0.7974285,-0.7276898,0.7966089,0.8827292,0.1759017,-0.1408014,0.3979795,0.4521255,0.5466152,1.1461999,1.0770417,0.9216929,1.0431651,1.0820843,1.3618729,1.6352704,1.0781260,1.2622023
-1.2764009,-1.3099626,-0.5935427,-0.6977575,-1.0293913,0.7559147,1.0525129,0.2487768,0.0601193,0.5113508,0.2578751,0.7851326,1.3474693,1.3465769,0.9427374,1.0862646,1.1071385,1.5647434,1.8185662,1.2086082,1.4706726
-1.1883844,-1.3611656,-0.6357719,-0.6754144,-0.9224212,0.6295338,1.1193955,0.4304557,0.0907658,0.7204220,0.3235509,0.8168709,1.5865073,1.3982097,1.0433397,1.3219383,1.1194775,1.7038163,2.2183290,1.4453992,1.6905476
-1.2484069,-1.4404336,-0.6737371,-0.7891622,-0.7776591,0.9620523,1.1072594,0.5468885,0.1551995,0.5682771,0.6876546,0.4956882,1.4602933,1.3734051,0.9135359,1.2672942,1.3395528,1.6004423,2.2253463,1.3809953,1.5127511
-1.3268870,-1.2731123,-0.8670872,-0.9769036,-1.2884625,0.7379140,1.1272129,0.4090820,0.1829625,0.5115255,0.6382402,0.7695075,1.3472451,1.2064825,0.4784869,1.0094762,1.3862802,1.2923566,1.9401586,1.1721872,1.1886483
-1.2549262,-1.4697829,-0.8422968,-1.1009395,-1.1279398,0.4971619,1.1468946,0.3814585,-0.0773932,0.1887696,0.5945278,1.0734348,1.3432603,1.0716629,0.6572906,0.7659794,1.2096369,1.3518937,1.8100010,0.9202704,1.2382208
-1.3000398,-1.3698426,-0.9180178,-1.0518050,-1.5078467,0.7822639,1.0150958,0.5679784,-0.1478236,0.0326249,0.6530260,1.1913459,1.3937745,1.1633451,0.7210827,0.6991885,1.0737427,1.2257222,1.5611529,0.7893157,1.1338086
-1.4470254,-1.2850310,-0.8724948,-1.2480148,-1.5683759,0.9872382,0.7587004,0.3150191,-0.3890022,0.1792429,0.7309910,1.0540597,1.2523946,1.2543452,0.4074393,0.4994214,0.8305701,1.1605799,1.0809852,0.6129465,0.9552189
-1.4915664,-1.3520385,-0.7694064,-1.1943569,-1.8151649,1.0262997,0.7060370,0.0104115,-0.3463655,0.0725625,0.6905420,1.2210464,1.4156322,1.1163120,0.1912494,0.5006346,0.8456661,1.2842994,1.0247391,0.5823109,0.9161578
-1.3703135,-1.3035254,-0.6656812,-1.0417603,-1.9708163,0.3713772,0.8097431,0.1311095,-0.3689677,0.2891406,0.4137791,1.0801574,1.3589671,1.0709820,0.3937434,0.5992573,0.8463165,1.3942088,1.2057773,0.6267795,0.9534630
-1.2804358,-1.1251255,-0.6179519,-1.1759254,-1.5468636,0.1550262,0.7778254,0.2112914,-0.6184618,0.2477574,0.1773838,0.7763154,1.0414867,1.0041937,0.3223745,0.6303862,0.6232989,1.0969820,1.2536638,0.7068998,0.8070455
-1.3969162,-1.3432463,-0.8510238,-1.4390910,-1.6568789,0.4465488,0.7288133,0.0811303,-0.6491296,0.1304481,0.2513343,0.8020126,0.9384078,0.8168266,-0.0890183,0.1030226,0.5267520,0.8947853,0.8275507,0.3701759,0.6849588
-1.4890953,-1.4615091,-0.8748386,-1.5729930,-1.8709307,0.3845181,0.5964889,-0.0347776,-1.2047018,-0.5595253,0.2396671,0.7731332,0.9407528,0.7437487,-0.2147986,0.1951850,0.4027089,0.9305901,0.8594255,0.2591600,0.7192483
-1.3469638,-1.3217191,-0.6495895,-1.5655614,-1.7628702,0.2534771,0.7547104,-0.0218933,-1.0629209,-0.6598287,0.2557891,0.3107215,0.7223326,0.8516839,0.0906721,0.3258710,0.4167848,1.0501159,0.9448417,0.2721324,0.9039081
-1.3209139,-1.0799065,-0.7328911,-1.2835953,-1.6474501,0.9913750,0.9283504,-0.0160782,-0.7950712,-0.4065292,0.3616672,0.5198828,0.7784480,0.9810108,0.1605221,0.4246862,0.6572284,1.1166592,1.0075465,0.4450501,0.8523437
-1.3421255,-1.0409979,-0.5685187,-1.0959049,-1.4380974,0.7492332,0.9487247,0.1560170,-0.6927795,0.0601817,0.2009108,0.7389722,0.9592133,1.0516305,0.2688681,0.5100878,0.6363398,1.2448255,0.9382644,0.6046835,0.8919243
-1.3270779,-1.0200632,-0.5480493,-1.0892607,-1.5038120,0.6731551,1.0774038,0.3606692,-0.8147109,0.0568095,0.0328900,0.3752012,1.0968655,0.9854572,0.5992081,0.6089143,0.7716603,1.3870244,1.2194059,0.7657697,1.1775410
-1.2362293,-1.0573716,-0.3555607,-1.0333072,-1.2605565,1.2269082,1.1278139,0.3223739,-0.5499301,0.0881765,0.3170530,0.4146344,1.1264139,1.0890762,0.3127024,0.5222542,0.9228331,1.4389589,1.1847423,0.9731333,1.0775052
-1.2506155,-1.0653706,-0.1747557,-1.0905961,-1.1013137,0.5740389,1.0107206,0.1205906,-0.5259910,0.4238443,0.1126710,0.8555053,1.4695622,1.1043215,0.3280198,0.6042141,0.8023745,1.3382149,1.1570488,0.9124076,0.8868877
-1.1675322,-1.0356897,-0.5332266,-1.0104425,-1.0998991,0.1669577,0.9276692,0.2265453,-0.8732937,-0.0709143,0.1913029,0.5798428,1.2336439,1.0800090,0.5226259,0.5870095,0.7871804,1.2886394,1.0498630,0.7086592,0.9629087
-1.0910742,-1.0707992,-0.5613596,-0.8976862,-0.8771438,0.4768872,0.9563489,0.4108048,-0.1993222,0.2546557,0.4530669,0.3784445,1.1702665,0.9611971,0.6528111,0.7409866,0.8471687,1.2917663,1.2283345,0.8106131,1.2793294
-1.1662312,-1.1198227,-0.4798847,-0.9083260,-1.1332541,0.2351217,0.9976783,0.4946530,-0.0167474,0.7186835,0.3252014,0.7461761,1.3566110,1.1338806,0.7000287,0.9562859,0.8741482,1.4309672,1.3305292,0.8140551,1.2304282
-1.1302810,-1.0520788,-0.4920558,-0.9020252,-1.3624904,0.2408648,1.1626568,0.4724225,-0.1965454,0.5147268,0.3233654,0.6105944,1.1756668,1.1643703,0.5857656,0.7534075,0.8142442,1.4200083,1.5504743,0.9185631,1.2335668
-0.9714178,-1.0281001,-0.5396518,-0.7319732,-1.2313225,0.6332716,0.9145787,0.4822304,-0.2506489,0.1749156,0.3681185,0.4011547,1.1835879,1.0104038,0.7058046,0.8830822,0.6559123,1.3207266,1.8623116,0.9629891,1.1250217
-0.9493626,-1.0950463,-0.5467443,-0.8121709,-0.6409501,0.7862573,0.9301958,0.5361812,0.0407159,0.3376143,0.1486937,0.6134108,1.2784429,0.9566842,0.8959998,0.8292964,0.7112433,1.3015107,1.7646868,0.9848519,1.2192681
-1.0099458,-1.3066899,-0.8000329,-0.7325918,-0.4895812,0.8268622,0.8855878,0.7095227,0.4684815,0.4203983,-0.1437889,0.8167091,1.1419067,1.0807918,0.8073054,0.6768909,0.7681888,1.1513214,1.7417908,0.9173009,1.2094985
-1.0276926,-1.3836232,-0.7023889,-0.5061102,-0.7004573,0.2033107,0.7846365,0.7820674,0.2624402,0.3150323,-0.0524403,0.7225155,0.8686982,0.7791381,0.7355265,0.7270319,0.6329665,1.0090576,1.6913322,0.8035384,1.0978966
-1.0085471,-1.2267076,-0.6769602,-0.7902800,-0.9396547,0.6499038,0.6639873,0.7026742,0.0578410,0.2002540,-0.1512653,0.6785187,0.7954931,0.8054249,0.7262535,0.8506838,0.6395020,0.7711758,1.6456839,0.8050086,1.0368090
-1.0615749,-1.3482072,-0.8119859,-0.9063595,-1.3044463,0.4638615,0.6343760,0.4312318,-0.2371645,-0.0153069,-0.2105888,0.9865473,0.9245571,0.9056584,0.6168897,0.6873169,0.3248812,0.6700552,1.3208510,0.5583397,0.6863838
-1.1018350,-1.1840147,-0.8400919,-0.7424481,-1.1154428,0.2930509,0.7351047,0.4530244,-0.4114910,-0.1791928,-0.0440369,0.8061000,0.8502783,0.6869318,0.5592015,0.4399360,0.4422273,0.7073036,1.3989121,0.5864423,0.7319592
-1.0572529,-1.1650244,-0.7834178,-0.7537745,-0.6655314,0.3229382,0.6783391,0.5211602,-0.1378202,-0.1167284,0.0439377,0.5408210,0.7995855,0.5499581,0.3734140,0.5847161,0.5901443,0.6290229,1.3749259,0.4781569,0.6223163
-1.0038416,-1.2028607,-0.8866112,-0.8308111,-0.8176820,-0.0677383,0.5587923,0.3604634,-0.5408989,0.1785430,-0.0667420,0.6595299,1.0330355,0.4546093,0.3879192,0.7590223,0.5589841,0.6924350,1.1938913,0.5066865,0.7324530
-0.9411024,-1.1413622,-0.8228145,-0.9575938,-0.6124337,0.4829338,0.5472968,0.4075136,-0.5697331,0.4116217,-0.0807109,0.7608472,1.0202699,0.6794949,0.7576557,0.6851448,0.7785022,1.1364505,1.3281881,0.7716981,0.8693255
