F3,Fz,F4,Fc5,Fc1,Fc2,Fc6,T3,C3,C1,Cz,C2,C4,T4,Cp5,Cp1,Cp2,Cp6,P3,Pz,P4
-0.4475433,-0.8020895,-0.2230711,-0.7047490,0.5799097,0.3470629,-0.1933699,-1.3978950,0.0903502,-0.6166533,-0.3052956,0.5241128,0.4910605,0.6552166,0.2863255,0.6911143,-0.0962487,0.2539817,-0.3850353,-0.2492289,0.3467928
-0.5128567,-0.6244604,-0.8551621,-0.6059558,0.8168163,0.1402252,-0.4483770,-2.2592616,-0.2001503,-1.0726293,-0.4551376,-0.0973335,-0.0234343,0.3906599,0.5230630,1.0739444,-0.0735493,0.1669857,-0.2064168,-0.2110907,-0.1706362
-0.2339809,0.0365977,-0.5841758,-0.7113567,1.1674541,0.5940962,-0.1919492,-1.7544225,-0.4240823,-0.5180718,0.0292826,-0.0269250,0.5175975,0.6149206,0.4557199,1.3317980,-0.0610482,0.0060197,0.0540096,0.2981790,0.1243523
-0.0167287,-0.0792303,-0.6137816,-0.9508824,0.9164564,0.6308852,-0.3508774,-2.0588031,0.0505494,-0.7908485,-0.3643128,0.1359507,0.4932780,0.4042785,0.3086373,0.9238517,-0.7573989,0.0076775,-0.5092202,-0.1473259,-0.1209162
0.1255268,-0.3946950,-0.5006092,-0.6079125,0.9745182,0.7898644,-0.0562451,-1.8218843,0.3711775,-0.6218770,-0.9066767,-0.1962311,0.0652287,0.1180435,0.3690537,0.8598812,-0.9324045,-0.1747854,-0.3492509,-0.4477727,-0.5034881
-0.2806690,-0.3708549,-0.8018337,-0.7578244,1.0942287,1.0600107,-0.0999477,-1.9332156,0.3134468,-0.0492264,-0.7243087,-0.5135843,0.2498388,0.2195413,0.1427796,0.5069007,-1.1660359,-0.2472665,-0.5857105,-0.7167809,-0.5907626
-0.2931091,-0.2544010,-0.1020452,-1.0699986,0.5188606,1.4936826,-0.0119209,-2.7168620,-0.2317556,-0.6924390,-0.6923854,0.2835579,0.1269581,0.3364315,0.0187357,0.4521856,-1.5675067,-0.2363954,-0.7385318,-0.9466181,-0.4388335
-0.2532738,-0.5607419,0.0865897,-0.8804692,0.4508992,1.4264171,0.0748388,-2.7485132,-0.4083451,-0.8421651,-0.5617826,0.4917106,0.3880425,0.3850747,-0.1106901,0.3218881,-1.2152282,0.0418370,-1.1043154,-0.9682605,-0.4825152
-0.0152411,-0.1770242,-0.4438482,-0.8149068,1.0026368,1.1197977,-0.3140864,-1.4509386,0.7003556,-0.7491699,0.1480539,0.1595091,0.6431883,0.3177250,0.2286787,1.2312301,-0.3372228,0.2166481,-0.6091712,-0.3043256,0.4145368
-0.0472677,-0.7838346,-0.4492483,-0.8235496,0.9853439,0.9203823,-0.5785061,-1.3890681,0.9364579,-0.5691432,0.0100408,0.6851207,0.5416535,0.2397915,0.2342624,1.3046951,-0.1951898,0.3785087,-0.5211310,0.2165067,0.8242137
-0.3022015,-0.7719204,-0.9734335,-1.0647581,1.0007007,0.6048386,-0.6345918,-1.6470543,0.0879519,0.2475644,-0.0341706,1.0797324,0.1731815,0.3052830,-0.2948724,1.1290985,0.0528857,0.6739843,-0.2392694,0.3913725,0.9569365
-0.1406847,-0.7450930,-0.8539161,-1.0467583,0.8443179,0.4668684,-0.7610080,-2.1589024,-0.1565430,-0.6057999,0.2151149,0.8560882,-0.4332530,0.2351550,-0.2092206,1.3071114,-0.0093467,0.3856471,-0.1709176,0.4375394,0.8226754
-0.0876915,-0.4913613,-0.5867334,-0.6031577,0.7385265,0.8718266,-0.5696220,-2.3309729,0.4043892,-0.6972021,0.5775028,0.8275558,-0.3844825,0.2194407,-0.1020363,1.1043366,-0.0714464,0.0822716,-0.2536447,0.6557991,0.7246817
0.0025526,-0.4054030,-0.0052007,-0.7098518,0.4831006,0.5886357,-0.4273262,-2.3696969,-0.0019775,-0.4478078,-0.3069701,0.8991841,-0.0207941,0.2906403,-0.1741872,0.9981157,-0.4393423,-0.2605632,-0.6381021,-0.0032953,0.0322517
-0.3813578,-0.2556090,-0.4201911,-1.0128108,-0.0443231,0.9583755,-0.1731395,-2.2033534,-0.7916589,-1.0380119,-0.5173590,0.4382743,-0.3099479,0.1916729,-0.4021470,0.1898042,-0.9380879,-0.3899662,-1.1009938,-0.7571729,-0.7622530
-0.7324584,-0.4149712,-0.5788724,-1.0326403,0.2779441,1.2690393,-0.4991146,-2.6538646,-1.1244324,-2.0391929,-0.3193339,0.2212251,-0.6596409,0.0451038,-0.5475668,0.2713042,-1.4656686,-0.9321351,-1.2453257,-1.4701425,-1.2774265
-0.6135319,-0.4878061,-0.9006058,-1.1737373,0.8825252,0.8765477,-0.6270143,-2.6492498,-1.0624471,-2.2823811,-0.0683964,0.6094609,-0.7851764,-0.3039484,-0.8757747,-0.4305530,-1.7508349,-0.8485544,-1.8532966,-1.5819901,-1.1685069
-0.5143561,-1.0280343,-0.9528708,-1.1137657,0.2363354,0.8853896,-0.8566080,-2.3420532,-0.5096567,-1.8397417,0.1088342,0.4000757,-0.6232569,-0.1918886,-0.4268204,-0.2089762,-1.4880615,-0.5414932,-1.5012372,-1.4157155,-0.9135630
-0.0745002,-0.2864604,-0.4155503,-0.6377472,0.4855162,0.5790144,-0.7563856,-1.7156712,-0.5800245,-1.1531721,-0.5273848,0.0526681,-0.1799101,-0.1851753,0.1629990,0.2448104,-1.2454727,-0.3419072,-1.1086119,-1.2391704,-0.8746547
0.2902387,0.0008140,-0.3892471,-0.2238459,0.8454343,1.1069754,-0.1957119,-1.8162508,-0.0386522,-1.5566065,0.2731274,0.5338631,-0.2091336,0.3133120,0.0112132,0.0606615,-1.1309677,-0.0562656,-0.9749431,-0.9446390,-0.1374304
0.4593602,0.4188886,-0.3148319,-0.0129719,0.9943785,1.6311612,0.2957351,-2.0994413,-0.0736348,-2.0664468,-0.0166914,0.6457365,0.2774295,0.7319706,0.5171770,0.4946908,-1.1192471,0.6031274,-0.7279329,-0.5445740,0.2392852
0.4195598,0.3144309,-0.3898776,0.4814099,1.1259888,1.8261862,0.4583690,-1.4640449,0.0942017,-1.3787372,0.0759363,0.0182594,0.6335973,0.9454037,0.7379096,0.6956877,-0.3054015,0.8747805,-0.4360453,-0.0864839,0.6226432
0.1954148,-0.1763591,-0.5015439,0.4935119,1.0340385,1.8380272,0.0412748,-1.5267022,0.0982250,-0.4680823,-0.1250281,0.4846805,1.0559894,0.9817056,0.3724003,0.6757448,-0.3421893,0.3601450,-0.0794711,-0.0438315,0.2246643
0.0670360,-0.1342661,-0.5686218,-0.3309988,1.2841955,1.7185977,0.0843536,-1.2932473,0.5488538,-0.4046732,-0.0891489,0.6588104,0.3789620,0.5016927,0.5778869,1.0250983,-0.4716341,0.1374348,0.0047023,-0.2119212,0.3583020
0.1363052,-0.0108006,-0.2029501,-0.3895810,0.9154714,1.6595984,0.1200718,-0.8915739,0.6952471,-0.3867113,-0.2546529,0.1246182,0.1486430,0.5300705,0.8438271,1.3581922,-0.4148031,0.2118598,0.5589147,0.2550106,0.6726868
0.3827511,0.0812207,-0.2988505,-0.2311557,1.1671665,1.5019544,0.3091685,-0.6530608,1.3148907,-0.9440248,-0.1391542,-0.1186739,0.2947671,0.3210432,0.7570996,1.1714339,-0.0467596,0.6622324,0.8559110,0.5664139,1.1043020
0.4082226,-0.0605784,-0.3412348,-0.2620952,1.2946411,1.1839507,0.2852967,-0.8160351,1.3336935,-0.5140638,0.0094496,0.4987653,0.6329043,0.7103508,1.2328473,1.5867610,0.1097935,0.9566336,1.0103748,0.8731422,1.1027715
0.6446043,0.1387353,-0.4131450,-0.0438511,1.0383244,1.2781872,0.4567248,-0.6629539,1.4704021,-0.0798752,0.2743193,1.1979758,0.7148415,0.7052703,0.9726912,1.8465531,0.3363422,1.1642034,0.9678732,0.9897531,1.1308310
0.7454371,0.0650863,-0.2186673,0.0735946,1.2563199,1.5374068,0.3387083,-0.6835877,1.6478859,0.1694988,0.5193228,0.6843134,0.6832893,0.7058577,1.0418589,1.9963803,0.4547471,1.2124966,1.3627023,1.1443894,1.2604591
0.4914119,0.1671548,0.1702504,-0.0600631,1.1379104,1.6369637,0.3392743,-1.3205810,1.0777687,0.2311967,0.5819300,0.8663296,1.3424212,1.1596215,1.0907760,1.9669447,0.5395471,1.3803172,0.8728597,1.0116904,1.1875551
0.0623998,0.2634180,0.1954702,0.2810706,0.7102133,1.3529433,0.4655486,-1.3168914,0.9630266,-0.1205435,-0.1095007,1.0107074,1.1027710,1.0061146,0.5234705,1.2661573,0.3683583,0.7607011,0.4600774,0.2858257,0.5526856
0.4754422,0.8729978,0.1544927,-0.1531230,1.2100571,1.9515940,0.2853013,-1.2809489,0.3176116,-0.3565608,0.5299832,0.7507169,0.9349420,0.7699195,0.5130319,1.2257118,0.0012935,0.4339831,0.0636119,0.1048088,0.2187608
0.5849187,0.7777464,0.1041035,-0.3719891,1.3192425,2.1020694,0.2434122,-1.5447814,0.7192171,-0.1687059,0.5215581,0.6240214,0.8296226,0.8456368,0.4310351,1.1053022,-0.4219363,-0.2190179,-0.0479904,-0.5342814,-0.4678106
0.2356331,0.0677450,0.1021058,-0.4138723,1.2286897,1.7500488,0.0231017,-1.3786221,0.5450177,-0.4619144,0.2129703,0.8823804,0.8244086,0.5275701,0.0851395,0.9556313,-0.7868195,-0.1660043,-0.0891386,-0.6748780,-0.5080037
0.5420582,0.2886637,-0.2727569,-0.3224733,1.3490514,1.3863231,0.0823431,-1.3233106,0.5637532,-1.3674147,-0.2630143,0.8035583,0.8820361,0.4976149,0.1394418,1.0047271,-0.6669039,-0.0769879,0.0632660,-0.6029655,-0.2834234
0.3712145,0.1301939,-0.2750716,-0.4797581,1.5299628,1.0910403,0.0455176,-1.2376453,0.6453980,-1.1162465,-0.5899549,0.2234137,0.3751463,0.2910434,0.3192831,0.7320436,-0.3045397,-0.3593968,-0.1894043,-0.4058484,-0.2847436
0.1118168,0.2673983,-0.1595931,-0.4047456,1.4070618,0.7913721,-0.0101851,-1.3209853,0.2957820,-0.6968538,-0.7328665,0.6302539,0.3070961,0.4361002,0.3485517,0.6917785,-0.2931993,-0.3288873,-0.3616990,-0.4391373,-0.2853587
-0.0826389,0.3462017,-0.5882946,0.1528179,0.7501845,1.2888340,0.0009041,-1.4102122,0.7771716,-1.1222433,-0.8219461,0.8917802,0.8072228,0.5716826,0.0796062,0.6212643,-0.2654247,0.1067851,-0.0666749,-0.2124921,-0.2641149
0.2853357,0.3136382,-0.0580162,-0.2395854,0.3913376,1.5809889,-0.0089561,-1.5299947,0.6001169,-0.8917691,-0.2588109,0.2673420,0.4215502,0.2847366,0.1038605,0.3824015,-0.4900121,-0.1207261,-0.0622523,-0.2255602,-0.7728950
0.1762608,-0.3926086,-0.6761439,-0.5290810,0.7196541,1.6005607,-0.3564974,-1.8556070,0.3252773,-1.4202193,-0.2130680,0.4533464,-0.1715848,-0.0712015,0.0159837,-0.1897980,-0.8411469,-0.6384633,-0.2140888,-0.7061859,-1.0977371
0.0114992,-0.7690892,-1.1779877,-0.0032930,0.8422744,0.7327471,-0.7237712,-2.0448117,-0.2638743,-1.3524150,-0.1960584,0.5952397,-0.6807901,-0.4094672,0.2753889,0.2120976,-0.9650453,-0.8641257,-0.2569340,-0.8003365,-1.1027130
0.1884905,-0.9900991,-1.5067974,-0.0915063,0.4657606,0.3574963,-0.9005875,-1.3046108,0.2654501,-1.4888014,-0.0386048,-0.0432338,-0.4741639,-0.3659037,0.9232761,0.2718023,-0.8798957,-0.6869684,-0.2676633,-0.7781172,-0.6320581
-0.2474255,-0.4538400,-1.8925588,-1.0349271,0.5355974,0.5520379,-0.9772235,-1.1785458,0.4793387,-1.2805355,-0.3017694,0.2039872,-0.3430187,-0.2203158,0.8058748,0.6592479,-0.2308697,-0.0159895,-0.1717609,0.1472190,-0.0251305
-0.8201014,-0.4902113,-1.8262756,-1.0498651,0.2406133,0.5488546,-1.0799648,-1.8213012,0.2234967,-0.6209075,0.2161627,0.5521725,-0.2205056,0.0128246,1.2930617,1.2604160,-0.0919967,-0.0360396,0.2390094,0.4832381,0.3665977
0.3391452,0.2147611,-1.4923747,0.3735403,0.9613789,0.5161608,-0.5659258,-0.7305337,1.3795780,-0.4388127,0.2486102,0.3991166,-0.1260928,-0.0960316,1.6707656,0.9588319,0.0429580,0.2059865,0.5763235,0.4991146,0.5333636
0.8539236,0.6584975,-0.9246473,0.5301658,1.1223946,0.7191378,-0.2493205,-0.7426922,1.3059686,-0.7977515,0.1917435,-0.2341022,-0.1961224,0.0628744,1.2026101,0.6372697,0.3002731,-0.1190631,0.3507037,0.1062296,0.1275665
0.2483372,0.0760728,-1.4272392,0.3257816,0.8355666,0.4389284,-1.0458814,-1.4655153,0.6094008,-0.3548993,0.1411278,0.5503905,-0.4997682,0.0889204,1.1033171,0.3718709,-0.4037345,-0.5121714,0.2864571,0.1014135,0.0288639
0.5271019,0.1069034,-1.0313413,0.6460679,0.3455032,-0.2500474,-1.0093125,-1.1727741,0.5433557,-1.0958701,0.1650563,0.5596595,-0.6724463,-0.2011617,0.7607759,0.5180980,-0.5663447,-0.1864878,0.2895750,0.3923979,0.3191954
0.9115767,0.2662781,-0.7432557,0.7742024,1.2907487,0.7186710,-0.5438930,-1.1816031,0.6154076,-1.4963329,-0.0479171,-0.3147644,-0.0965625,0.0976935,1.2157284,1.0236083,0.0473188,0.2038407,0.3155036,0.4546161,0.6957256
1.3381757,-0.1150295,-1.1270117,1.2576509,1.1909430,1.2403007,-0.4001939,-0.2300842,1.9791049,-0.2096002,0.1504217,0.4428922,0.0676894,0.2580448,1.3841101,1.9341162,0.4136744,0.3820254,1.4048060,0.7556735,0.9353677
1.1979311,-0.5826169,-1.2411215,1.4870133,1.3734188,1.0123402,-0.4455318,0.1957473,1.8423971,0.0711604,0.3169161,1.3714820,0.3285105,0.2724477,1.7734145,1.8793803,0.3090661,0.5251484,1.5234135,0.8626937,1.2700604
0.9506909,-0.1329052,-1.0195234,0.9279954,1.5508832,0.7166043,-0.4984034,-0.1235593,1.4489373,-0.4858557,0.2852166,0.9313704,0.3455387,0.3360651,2.0935533,1.7337869,0.2825322,0.5014541,1.6098620,0.9746552,0.8589396
0.7507794,0.0157521,-1.2812405,0.6376627,1.1170532,0.6363505,-0.8288516,-0.4264370,1.4644693,-0.7000152,0.0905555,0.6711075,0.0221041,0.2554643,1.9027978,1.4875423,-0.4517417,0.0044794,1.3355079,0.9782689,0.6456658
0.2011683,-0.6286546,-2.0772581,0.3292647,1.4794124,0.2174717,-1.2804589,-0.8160941,1.7247405,0.1030125,0.5868003,1.2126999,-0.3680341,0.0860955,1.7388167,1.3849164,-0.1076365,0.1505135,0.5753501,0.4748828,0.6115624
-0.0237020,-0.7929648,-1.7245249,0.1048499,1.0509855,-0.2920266,-1.0987029,-1.2851679,0.9307105,-0.7081678,0.7602564,1.1906383,0.1163341,-0.1783759,1.6226727,1.5372598,0.1183973,0.1797833,1.1848301,0.2954746,0.6892369
0.2029029,-0.4200687,-1.7157396,0.1562133,1.0854563,-0.0677876,-1.0006486,-1.2058241,1.1905413,0.1632835,0.7233148,1.1153961,0.0702158,-0.0136573,1.5741560,1.1333371,-0.1802908,0.4538576,1.1611713,0.4198255,0.7522636
0.4315592,-0.3871406,-1.4909209,0.3209708,1.3952963,0.3279389,-0.5565412,-1.0832114,1.6680324,0.8155147,0.7348294,1.1591150,0.2674315,0.3342629,1.7063531,1.2649130,0.1685989,0.4880566,0.9780675,0.8601066,1.1593478
0.5627767,-0.0986619,-1.3557535,0.6655975,0.8048607,0.2510551,-0.7356158,-0.4795885,2.2703829,0.5997418,0.3803967,0.9177707,0.0868096,0.3154958,1.7788250,1.5402749,0.2501525,0.4465235,1.5483098,0.8902500,1.2586704
0.5756785,0.0997577,-1.2091560,0.8181896,0.7622626,0.5024205,-0.6307603,-0.4442679,2.2230561,0.5455350,0.1275439,0.2498901,-0.0764582,0.4254235,1.7421926,1.7542233,0.5472823,0.3085164,1.3049983,0.6128675,1.0256685
0.3450819,0.0522308,-1.3529956,0.0096405,1.3022953,0.2181753,-0.9744652,-0.9135557,1.0448529,0.4109615,0.4833663,0.4939824,-0.1955114,0.2998184,1.0405054,1.2962849,-0.1355222,0.1137658,0.6577592,0.5835089,0.9482797
0.1326477,-0.1044506,-1.5322862,-0.1419542,0.8740407,-0.1688146,-1.0554107,-1.4568118,1.2126236,-0.3575547,0.7145213,1.2854630,-0.4182906,0.2457439,0.6404691,0.6587782,0.0127582,-0.0249810,0.2591611,0.4510853,1.0139844
0.0916910,0.2471598,-1.8987405,0.1722007,1.0711690,0.0053958,-1.1855072,-1.5939612,0.6419656,-0.1148481,0.7490672,1.0940489,-0.4341551,-0.0027666,0.8373675,0.7030396,-0.0188477,-0.3745883,0.3735945,0.1219479,0.6664739
-0.0974259,0.3299297,-2.2437267,-0.1396949,0.8512772,0.3126979,-1.1964016,-1.4981679,0.4156353,-0.1183922,1.1012201,0.9579361,-0.3259008,-0.2688070,0.7392940,0.7873378,-0.1354090,-0.4107021,0.6759152,0.2681781,0.4605307
-0.3922905,-0.4185612,-1.9836087,-0.5511435,0.8421905,0.6650203,-1.2326250,-1.7291524,0.2384769,0.0068195,1.0838838,1.0176210,-0.4112643,-0.2524656,0.9492738,0.9890093,0.1592763,-0.0847605,-0.0452089,0.4069848,0.6477263
-0.2747219,-0.4228082,-1.7401211,-0.1635632,0.9140542,0.7816724,-1.0835513,-1.8578449,-0.3027827,0.1479416,0.8158349,0.7202280,0.2165156,0.2143344,1.1770550,1.4088658,0.4860776,0.2593161,0.3301499,1.1491416,1.1204590
0.2518045,-0.0907691,-1.1255914,-0.2359973,0.9891068,1.2958959,-0.5895942,-1.6571078,0.2651108,-0.0217724,1.2540998,0.7474307,0.5013613,0.3244237,0.9816231,1.6497796,0.5882186,0.4238801,0.7168148,1.1690624,1.2335582
-0.1580602,-0.4896909,-1.3779720,-0.2822992,0.8658152,1.2991071,-0.5968825,-1.8178408,0.6316872,0.1999830,1.1921898,1.8960758,0.4417962,0.4944307,1.1840457,1.1421931,0.6227521,0.4907495,1.3225592,1.2476286,0.9830330
-0.2153018,-0.6684085,-1.6915007,-0.2660610,0.7663934,0.5289257,-0.6262316,-1.5645734,0.6669335,0.0960671,0.5480767,1.3880954,-0.1451247,0.3285767,0.9443567,0.8770948,0.0846879,0.2137837,1.0261164,1.0301074,0.6859776
-0.5080169,-0.1974398,-1.9056261,-0.8471786,0.4175594,0.5351176,-0.8527516,-1.9303460,0.2739810,0.0458699,1.1931108,0.7776102,0.0015449,0.4125327,1.0636425,1.0241863,0.4877175,0.2309304,0.9213839,0.9768471,0.9870470
-0.5647214,-0.1600322,-1.8247383,-0.9383886,0.6377773,0.4958445,-0.7360805,-1.7179658,0.5930232,0.2734407,1.1420841,1.0458175,0.1801491,0.3187825,1.1827095,1.2372545,0.4323277,-0.0226221,0.8787833,1.1360829,1.0184352
-0.6029627,-0.9274865,-1.7950928,-1.1290728,0.3298663,0.3450028,-0.7204067,-1.8198934,0.0661322,-0.1343076,0.6055628,1.4239192,-0.0221852,0.3343014,0.6436868,0.9885011,0.4666393,-0.1564995,0.5306746,0.9034848,0.9500637
-0.7884473,-0.9151179,-1.9082245,-0.8808866,-0.2125802,0.0389465,-0.8260226,-1.8400863,0.3237165,-0.1714052,1.3543216,0.5416808,0.0600540,0.1800283,0.8185035,1.2703531,0.7594596,0.0469349,0.6914051,0.6736829,0.8023874
-0.5332325,-0.4860485,-1.5043774,-0.4648513,0.6668739,0.5324346,-0.6196825,-1.6760851,0.9726872,-0.0537880,0.9383359,1.1296818,-0.1394073,0.0999899,1.0523466,1.6101638,0.8995274,-0.0450120,1.0276672,1.0446011,0.7472093
-0.4478004,-0.5045813,-0.9586014,0.0292147,0.7367231,0.4659846,-0.3061936,-1.3760902,0.6797405,-0.0347444,0.9256576,2.1654820,0.5148001,0.4821232,1.2650095,1.5634937,0.6918306,0.1126857,1.1482130,0.5476536,0.8634361
-0.0830564,0.0770129,-0.9091433,0.4314359,1.0684139,1.1052177,0.2816601,-0.7434938,0.9378380,0.7190577,1.2919194,1.2466041,0.4386024,0.8027906,1.3620793,1.6901046,0.6674830,0.7216258,1.4262716,0.6255111,1.1441122
0.0625156,0.3995834,-0.4817717,0.5170106,1.4442444,1.5206815,0.3325428,-0.5666452,1.4705447,0.6637099,1.1499933,1.2813519,0.5753434,0.7460797,1.2759173,1.8679509,0.7412401,0.4189719,1.3168253,0.8585607,0.9356229
-0.1631974,-0.2566207,-0.1582239,0.1858816,1.0259238,1.2964846,0.3692497,-1.2857556,1.7029887,0.8498657,0.5293680,1.2224269,0.9716017,0.8198785,0.9588760,1.8689411,0.8284507,0.6898758,1.2697994,1.0171001,1.0051991
-0.2947797,-0.5554648,-0.7779469,0.2648491,0.7061481,1.2204897,0.3124389,-1.2797489,0.7842262,-0.2161144,0.7465246,1.4790637,1.0942460,1.0465928,1.0466244,1.8426354,0.6271520,0.8520594,1.1695803,1.0813761,1.3426849
-0.4304811,-0.7035700,-0.9767486,-0.0318883,0.9191355,1.2759935,0.2468705,-1.1639539,0.9139971,-0.1528292,0.8151649,1.2788764,1.3856981,1.3071263,1.0393242,1.8189834,0.6552921,0.7118379,1.1118966,1.2011342,1.6388688
-0.3244382,-0.5167568,-1.1019930,-0.1229012,0.9606485,1.2513249,0.3068455,-1.6078957,0.2181578,0.3959551,1.1673125,1.4949560,1.4522794,1.2008072,0.7553085,1.4803903,0.6897665,0.7817907,0.8268846,0.9328420,1.4024326
-0.4239713,-0.5482411,-1.0199280,-0.4645604,0.7047642,1.6155661,0.0460388,-2.0155897,-0.1590225,-0.2587183,0.3090849,1.7233238,0.7682326,0.8812567,0.9035612,1.4885345,0.3969052,0.6144006,0.8892648,0.9096750,1.2900137
-0.0177776,-0.0811568,-0.7424573,-0.1761646,0.5021053,1.2634306,-0.0009531,-2.0208743,0.0277881,0.3404882,0.7149782,1.3564568,0.7697670,0.8535052,0.9204832,1.8240776,0.5485694,0.6667141,1.1202298,1.4274696,1.1328905
0.0002512,0.0053110,-0.8580927,-0.1119488,0.8045780,1.0918015,0.1683309,-1.5921750,0.6797931,0.6970453,0.7172748,0.9517390,0.7313616,1.0271075,1.2081422,2.0194464,0.7287280,0.5230809,1.1765159,1.3230859,1.4935458
-0.5536979,-0.2708057,-1.1608669,-0.0285860,0.9502007,1.1929375,0.2590441,-1.2910452,0.5564164,0.7552274,0.7836419,1.3627316,0.7342849,0.9863704,1.7449647,2.3066990,0.8784205,0.7818637,1.2614832,1.5824659,1.6301548
-0.3200245,0.2433232,-1.3636383,0.5721002,0.8845643,1.1279972,0.4736466,-0.4470687,1.3409851,1.0976074,1.4113957,1.6212146,0.9377400,0.9767072,1.9796365,2.5487866,0.8412259,0.9987004,1.6139731,2.0795791,1.7557422
-0.0589579,0.0846306,-1.2627770,0.5387916,1.3836050,1.0278039,0.2787680,-0.3500524,1.7809321,1.3717227,2.0775869,1.4006323,0.9179796,1.1079727,1.6846925,2.4933720,1.3779567,1.0646585,1.8652259,2.0239358,2.0831091
0.0852528,-0.1555227,-1.6313295,0.7960522,1.4094660,0.8824829,0.2458802,-1.0772200,1.8636119,1.6811662,1.7016674,2.1704364,1.2055625,1.1951702,2.1203778,2.9937577,1.5843252,1.1307954,1.7111343,1.8163587,2.1769841
0.4223151,-0.2545210,-1.1741965,1.5133296,1.4067957,1.0598621,0.6347245,-0.8550701,2.4618020,2.3066432,1.6987588,2.6355865,1.4770186,1.4352815,2.4252303,3.4160571,1.6283516,1.5053613,2.2520473,2.3444295,2.5127392
0.3976846,-0.4883122,-0.9706098,1.3780423,1.6220361,0.9736256,0.8729160,-0.3442217,3.0869112,2.0280797,2.2648633,2.1131017,1.6132739,1.7652926,2.6047325,3.1352088,1.5515543,1.3959293,2.4589777,2.0507932,1.9275250
0.3627585,-0.3792725,-0.6748818,1.4763274,1.7848543,1.1336570,0.7139924,-0.2648217,2.7348523,1.9950002,1.3653336,1.9279234,1.5886991,1.5949204,2.5342088,2.6656411,1.4054670,0.7873699,1.9356939,1.8119836,1.7191753
0.2094363,-0.4449406,-0.8711565,1.0958707,1.5352274,0.5482289,0.8159254,-0.2165900,2.4727871,1.6661422,0.9950628,2.0375178,1.5544577,1.5141407,2.2974064,2.5084410,1.0217987,0.9591041,1.4452031,1.5452120,1.9145975
0.0921278,-0.5244424,-1.1715977,1.0765586,1.3227680,0.5301396,0.5774499,-0.0859496,2.3545434,0.6766336,1.8019253,1.5814593,1.4843417,1.6251309,2.2491655,2.4449520,1.1887807,1.1109737,2.1040418,1.7689606,1.8976735
-0.2053253,-0.5009419,-1.7633359,0.9969739,1.6428914,0.7311280,0.4045719,-0.4534189,2.4638178,1.3078688,2.1636853,1.6377046,1.3257464,1.4231193,1.8665001,2.7001588,0.8946385,0.6625960,1.5971926,1.5577091,1.6466372
-0.5256285,-0.5655834,-1.0819306,0.5099927,1.3327706,0.9555038,0.6833338,-0.5783223,2.2428889,0.7804657,2.0877066,1.6928563,1.0968981,1.1532613,1.7904482,2.5310571,1.0924288,1.1486371,1.1609650,1.5146353,1.6625541
-0.2535368,-0.6256319,-0.9602016,0.6213165,1.4081463,0.4218969,0.5782048,-0.3948439,1.9602532,1.2787790,2.2660129,1.4455837,1.3379967,1.3865681,2.0133197,2.3073900,1.0191972,1.4048443,1.6525624,1.5512137,1.6855630
0.0404468,-0.5254512,-1.1787105,0.7445089,1.6470906,1.3044039,0.3897559,0.0738112,1.8078687,1.3603252,2.2813303,1.7369508,1.4512088,1.4547684,1.6143079,1.8038131,1.1425446,1.2297391,1.4481959,1.5593513,1.3829330
-0.3622366,-0.8273149,-1.3019948,0.6574232,1.3979881,0.9092627,0.1691717,-0.5635418,1.6661009,1.2914995,1.4342178,1.7162362,0.7955816,1.5507662,1.1732273,1.7055079,0.6445494,0.7775835,0.9693293,1.2482405,0.8707342
-0.3460613,-0.6847100,-1.7144482,0.6722816,1.1910039,0.8662575,0.3651045,-0.5013996,1.9887990,0.9622319,1.0826138,1.6163342,0.5245214,1.2527907,1.4870971,1.7901680,0.3742270,0.9856127,1.0234766,0.8530782,0.8560724
-0.1262186,-0.1279372,-1.1818109,0.4355325,1.4541740,0.8251905,0.4491727,-0.5687752,1.9722862,0.5777901,1.4407513,1.1112975,0.5416446,1.2316569,1.3794019,1.7071660,0.7683980,0.9341813,0.6595074,0.7665610,0.9606753
-0.2193932,-0.5390884,-1.7049680,0.0336837,1.3155710,0.1193398,0.3847947,-1.1735084,1.7064960,0.3231255,1.2638084,1.0301785,0.3775860,1.3575048,1.1724945,1.1900004,0.4255626,0.6422730,0.4947885,0.5010346,1.0067213
-0.2014805,-0.1916577,-1.4653548,0.3879610,1.4087431,-0.0352484,0.5897651,-1.1031592,0.9451032,0.0384838,1.1144525,1.2415705,0.2044959,1.3723696,1.4569532,1.2479339,0.7291781,1.1868148,0.2712413,0.3154271,0.9985504
0.0188251,0.0946333,-1.3323725,1.0996104,2.0163312,0.0697545,0.7673916,-0.6887286,1.7008754,0.4982925,1.1544555,0.7083802,0.7831087,1.6864576,1.9278183,1.5617317,0.5868498,1.3844073,0.6974693,0.5874974,1.3426871
0.1975520,0.2945186,-1.2531250,1.2877187,2.2462385,1.1103356,1.0003158,-0.0760540,1.6864511,1.1813343,1.4187875,0.7161966,1.3744330,1.9221985,2.3471031,1.8585358,0.8013455,1.4550294,0.8740287,0.8440287,1.4619539
0.0951008,0.0950517,-1.0067275,1.2638947,2.0455096,1.2428612,1.3923843,-0.0347606,1.5491682,0.8752707,1.9779844,1.4091702,1.2790062,1.9265492,1.9483249,1.7909281,0.5279987,1.2898619,1.0763128,0.4701393,1.4486917
0.1309075,0.1973616,-0.3383317,0.9634562,2.0258400,1.2195057,1.5979965,0.1129670,1.6733915,0.3830642,1.1573987,1.2825496,1.4263469,2.0123391,1.9466577,1.5502396,0.4767971,1.6164777,0.6207278,0.6063398,1.1517013
0.2074877,-0.0465961,-0.1442006,0.7559434,2.4243150,0.9643686,1.3602017,-0.3390610,1.5726842,0.6285307,1.4943285,1.2439904,1.4585245,2.0137584,1.9791346,1.5921315,0.7932897,1.0194490,0.5386378,1.1250246,1.1186690
0.4508408,-0.5142357,-0.3020284,0.8282149,2.0002437,1.1214684,1.0417880,-0.3219036,1.9276438,0.4654040,2.0230470,1.8673906,1.4396837,1.9348426,1.7373292,2.1427422,1.3459060,1.0593504,0.9019905,1.2789359,1.4468849
0.1641184,-0.4909731,-0.6965525,0.8454117,1.8936759,0.7378164,0.9509280,0.2491862,2.0483406,1.5412155,2.5990212,2.6287680,1.2259496,1.5276985,2.1239014,2.6103909,1.5997093,1.2354076,0.8781966,1.6361185,1.9155405
0.5287840,-0.1112377,-0.6586566,1.1848981,2.0237148,1.3584604,1.0543522,0.6538637,2.5947363,1.9347792,2.0424469,2.3456774,1.6589414,1.5467232,1.9894589,3.0896797,2.0745997,1.8335479,1.0649644,1.8915497,1.7386220
0.6180591,0.2304158,-0.1529341,1.1783667,2.1492441,1.7630042,1.2028987,0.0629656,2.7300754,2.2292900,2.1590829,2.5694625,2.0840414,2.0458691,2.0501575,2.4606898,1.6773852,1.8440633,1.1985185,1.7228295,1.9566938
0.5014183,-0.1110618,-0.1083812,1.0718968,2.2582777,0.5210940,1.5492828,-0.2972855,2.6758609,1.8698961,2.1074450,2.6935227,2.2502258,2.3472564,2.1574688,2.2163455,2.0449014,2.0773561,1.4190596,2.0780563,2.3068457
0.8195252,0.3728634,0.0310694,1.0425858,2.0750201,0.8832882,1.3266684,0.3773361,2.8872871,1.9043382,1.7226042,1.9876006,2.5102942,2.3249617,2.3893278,2.3007283,2.2902505,2.1695132,1.7097235,2.3654239,2.1159046
0.4535098,0.1812600,0.2248450,0.8514245,2.0736008,1.5954518,1.1183437,0.3307945,2.5130439,1.2691308,1.6033293,1.7461208,2.0860093,2.2073891,2.2198031,2.5522761,1.8823289,1.7142955,1.3114846,2.2129481,1.8528302
0.3034902,-0.2736709,-0.3056853,0.6955279,1.9579870,0.9599345,1.2620862,-0.1775373,2.0622208,1.7814773,1.4559534,2.8055940,1.6773698,2.2539098,2.0949304,2.7371993,1.4384217,1.5485135,1.0978489,1.8160243,1.8689173
0.7250068,-0.1643844,-0.8917519,0.5422581,1.8208945,1.1956267,0.9073536,-0.4959100,1.9246569,1.0201429,1.6733446,2.5351045,1.5664833,1.9751474,2.0767431,2.6697514,1.5090836,1.5170220,1.4074864,1.5843379,1.8994339
0.7727984,0.2824084,-0.0505586,0.3737845,1.7404641,1.2376636,0.6551489,-0.1745672,1.4712075,0.6275576,1.9502009,1.6861389,1.2863086,1.8740480,2.2731674,2.4397619,1.2613930,1.4205712,1.7025324,1.8126119,1.7903644
0.4436606,0.3768519,-0.1814848,0.2594264,1.9740030,1.0125152,1.0975008,-0.2217346,1.4832170,1.3286368,2.1670024,1.6006832,1.3134010,1.8594238,2.2142293,2.4210682,1.1163028,1.6456127,1.5536759,1.4511579,1.7774390
0.6962107,0.7038078,0.0448190,0.9113540,1.6926159,1.2804725,1.4910878,0.1884977,1.7626879,1.3162555,1.7683991,1.8762871,1.8877993,1.8508844,2.5940664,2.2183735,0.8022279,1.8674673,1.8409002,1.3826885,1.6868668
0.8439797,0.8467026,0.1264496,1.2974799,1.6981645,1.2330793,1.1153249,1.0130641,2.0794399,0.9795013,0.9809211,1.3469015,1.1368496,1.5214695,2.7389081,2.0298195,0.3211131,1.3045576,1.5799705,1.3498944,0.9991796
0.4704300,0.5407967,-0.5033128,0.8769101,1.8109146,0.7200384,0.8096220,0.7128568,2.1830113,0.7561183,0.2383250,1.0049171,1.3432500,1.2230071,2.2030199,1.7569114,0.6330624,1.0585185,1.5007390,0.9929509,0.8284284
0.6643032,0.9827773,0.2766882,0.9033539,1.7927248,0.7220149,1.4010912,-0.1698229,1.9277328,1.5253850,0.4293580,1.3109647,1.6241219,1.5486619,2.2922008,1.5415969,0.7069893,1.0423627,1.4927337,0.9779886,0.8422309
0.5838009,0.8876284,0.2434483,0.7013955,2.1722677,1.5047110,1.2290889,-0.0974058,1.5641029,1.3588761,0.4661590,0.6189632,1.1359501,1.5689765,1.8944881,1.0652443,0.8562192,0.7158469,1.0880619,0.8162366,0.7929408
0.2831700,0.2389654,0.1617921,0.4465994,1.9754602,1.1339515,1.1454390,-0.7199529,1.1306674,0.9349881,0.5447652,0.7350911,1.2653680,1.4706182,1.6515714,0.9539498,0.6609610,0.6713139,0.9831424,0.5032039,0.2555322
0.0639447,0.1818077,0.4482800,-0.4002632,1.0321919,1.3233765,1.7383916,-1.4711995,0.9011805,0.2694513,0.6705478,1.3852267,0.9663389,1.3553033,1.1345476,0.7067773,0.4909828,0.7618330,0.3070945,0.3974387,0.3272609
-0.2067233,0.7742378,0.7968267,-0.6587120,1.0346142,1.3768489,1.9599882,-1.6524920,0.0217947,0.1204640,0.6225296,1.1983920,0.9990141,1.5808506,0.9283862,0.6048256,0.6859062,0.8377177,0.4844092,0.2356860,0.5473565
0.0304725,1.0557332,0.4566227,-0.7149914,1.2854053,1.5305312,1.7345980,-1.5755274,-0.0804052,-0.1519409,0.6313671,0.8211221,1.4688567,1.5875074,1.1957641,0.8435339,0.8588058,0.9633251,0.4606909,0.3020478,0.3884256
-0.3832330,0.8786935,0.3321554,-0.5843771,0.8438519,1.7959445,1.8511363,-1.6431887,0.3091854,0.1409102,0.6513090,1.7609969,1.6157376,1.7539103,0.8038992,0.9900776,0.7719634,1.1768868,0.7626172,0.5003123,0.7590455
-0.3401455,1.2148811,1.3053629,-0.4130041,0.6198573,1.1822897,2.2421849,-1.1963556,0.4662582,-0.0451890,0.4934540,2.0751472,1.7506711,1.8833468,0.7789555,1.1300324,0.7564283,1.0295855,0.2594250,0.6846867,0.5759093
-0.5156735,0.7997136,0.7681474,-0.6943272,1.1457810,1.2816153,1.6628062,-0.6860798,0.2606717,-0.2904698,0.0262494,1.4770164,1.3353432,1.6864169,0.6348044,0.3384858,0.1610993,0.8076396,-0.3056496,-0.0873737,0.0083851
-0.4094601,0.7376580,0.2457230,-1.3834671,0.6828372,1.1951931,1.2413111,-1.5982233,0.3668753,-0.1509669,-0.0956778,1.3403479,1.0927324,1.2547939,0.2049852,0.1657002,0.4719665,0.7852110,-0.6213511,-0.4311418,-0.1372963
-0.4331043,0.0452901,0.4351940,-1.6951996,0.5852063,1.0899920,1.4912679,-2.1932831,-0.2747936,-0.5313600,-0.3648301,1.1675209,0.3671747,1.0996175,0.0673576,0.4320577,0.1045284,0.4381561,-0.6188513,-0.5858544,-0.0672791
-0.0271698,0.1934098,0.8550058,-0.9956458,0.6279789,1.2330359,1.6163449,-2.0216358,-0.6862804,-0.9352654,-0.1535359,0.7820822,0.8354630,1.0956961,0.1666702,0.3760328,-0.0993494,0.4807364,-0.3095337,-0.3942371,0.0352790
-0.0437326,0.4270394,1.0297163,-0.5629818,1.0005747,1.6186271,1.8807188,-1.9162802,-0.5287923,-0.9554356,0.1973013,0.7900033,1.1653980,1.2045271,0.2516656,0.2830499,0.3406541,0.6614659,-0.4460087,0.1554622,-0.1612466
-0.1919963,0.7233108,1.3532244,-0.2045231,1.7071775,1.3551908,2.0363245,-1.5680406,0.3110625,-0.5745659,0.2076752,1.1768504,0.7695924,1.4718962,0.4123126,0.4086617,0.1779344,0.9943368,-0.3002975,0.2042578,0.0847644
0.1506463,0.9194097,1.1946497,0.1306868,1.1484995,1.4998208,2.1064506,-1.2337589,0.7516658,0.1673891,0.2296888,0.9537815,0.8736915,1.8334380,0.9445490,0.9842107,0.3343698,1.1187680,-0.0578320,0.3912050,0.3227481
0.3139301,1.0238998,1.4908646,0.4092771,2.0148191,1.8736316,2.0488098,-0.6385061,1.2288555,0.6896083,1.1636914,0.7604187,1.4364659,1.8173105,1.1400872,1.4562478,1.0661545,1.1239651,0.4289656,0.4574597,0.5054901
0.3685556,0.7162489,1.5823519,0.0734320,1.5398817,2.1132293,1.9447534,-0.6005832,1.5627054,0.6543607,1.1365097,1.3711643,1.6583303,1.7964462,0.7551404,1.0284084,1.0045543,1.1764040,0.4440457,0.8822815,0.2988513
0.2975972,0.8431348,1.1607834,0.0724875,0.9669727,2.0629578,1.9196987,-0.7407367,1.5231550,0.5925949,1.4767871,1.4945109,1.9038479,1.9196227,0.8946149,0.8781095,1.3143147,1.2041389,0.7193795,1.2526107,0.8478130
0.3748544,1.0234829,1.2781833,0.0456105,1.5188328,1.5563067,1.7536440,-0.9911029,1.0285478,0.9443008,1.7281836,1.3868239,1.4702594,1.8393265,1.2237872,1.4903905,1.2212850,1.0499127,0.9019575,1.2427070,1.2592456
0.1859529,0.8144717,1.0041356,-0.4930300,1.8393625,1.6774415,1.6238389,-1.1568774,0.6177468,1.1772968,1.9664704,1.1388769,1.4780658,1.5720534,1.0436697,2.0927563,1.4672277,0.9842838,1.1345638,1.5104454,0.9940768
-0.3481210,0.1131124,0.3388870,-1.2644221,1.0397999,1.7491037,1.1977876,-2.0398371,0.3966265,1.1607232,1.8981644,1.6369480,1.3367660,1.1163813,0.8864354,1.8369780,1.3612196,0.9649518,1.1584210,1.7866353,0.8296102
-0.3448274,0.3803241,0.3310364,-1.1666559,1.0942330,1.4230781,1.3635292,-1.6268222,0.8205843,0.4252943,1.7194968,1.3374553,1.1166269,0.9401047,1.0457584,2.2583618,0.9604450,0.7229224,1.3498862,1.3949857,1.2058541
-0.2612549,0.6514529,0.1233293,-1.0958499,1.3585420,1.1970814,0.9330445,-1.3179922,0.0965576,0.6731875,1.6945930,0.9962764,1.2948248,0.8846298,1.0366963,1.9992911,0.9221366,0.3183534,0.9854212,1.4560984,1.0252994
-0.6418507,0.2734249,-0.1251486,-1.0895642,1.0462089,0.8996677,1.1051993,-1.6411605,0.1878274,0.6494315,1.1245463,1.7791816,1.1654907,1.1054510,0.7626525,1.3583989,0.9868349,0.6718215,1.0248833,1.4859633,0.7552575
-0.9869567,0.5122730,-0.3442872,-1.2190334,0.7112078,1.4602463,1.2411544,-1.5895379,0.1138140,0.4228280,1.3103533,1.8517218,1.2650361,1.3527672,0.7197834,1.5376718,1.6381305,1.1209247,0.6202745,1.8372105,0.7633799
-0.8052462,0.4784874,-0.3574882,-1.3337873,0.8701206,1.6555034,1.0650249,-1.5769472,-0.4830436,0.5673474,1.4814157,2.0132155,1.3452197,1.3706889,0.3714077,1.2209443,1.7002118,1.0772053,0.4089615,1.8138920,0.9786623
-0.6198204,0.1954845,-0.0225367,-1.5940579,0.8837299,0.9259002,0.8982709,-1.8247745,-0.6255026,0.6343145,2.1555822,2.5234349,1.5994329,1.1281922,0.1364298,0.9070396,1.1587331,0.5886727,0.1416917,1.3727285,0.6783831
-0.3846435,0.1918913,0.1793767,-1.2803463,0.8632578,0.7233010,0.5440392,-1.9221677,-1.1360557,-0.1250014,1.9636925,1.7666035,1.2333177,0.8566860,0.2033296,1.0736496,0.9701118,0.2732148,-0.3407695,1.0075634,0.2447573
-0.5286834,0.3888666,-0.1597548,-1.9067359,1.1795805,0.5934852,0.2809397,-2.0181618,-0.4827208,-0.4187760,1.4304761,0.6883445,0.5381224,0.6522070,-0.2134613,0.6531875,0.7957713,-0.1487933,-0.6391273,0.6176867,-0.0845907
-1.0251768,-0.1053079,-1.0236851,-2.0283911,0.7926766,0.7040842,-0.2885344,-2.6643579,-1.0405408,-0.5352525,1.2008033,1.2608172,0.4118492,0.3420710,-0.0152585,0.4067380,0.5096822,-0.2620247,-0.6829301,0.4752483,-0.3941081
-1.4177654,-0.1893377,-1.1260040,-1.9010218,0.6533044,0.9121767,-0.2034396,-2.2393014,-1.1232268,0.1543309,0.8688726,1.3134880,0.0134499,0.4250946,-0.2115334,0.4893973,0.1409372,0.1319606,-0.2757580,0.2719373,-0.2080969
-1.3964159,-0.0516657,-0.8099300,-1.7756374,0.9506249,0.7528347,-0.2189232,-1.8839442,-0.8119684,-0.7394534,0.8462304,0.6285692,-0.3038799,0.2704166,0.0176723,0.0651487,-0.4874478,0.0622463,-0.4567126,-0.1540355,-0.7043314
-1.3044968,-0.0189915,-1.2682612,-1.8736749,0.4743855,0.7494422,-0.6054498,-2.0214541,-1.4860535,-0.9735243,0.3806532,0.0464218,-0.4285528,-0.0469051,-0.5022519,0.1216765,-0.4049662,-0.8000354,-1.2479120,-0.4955957,-1.2662601
-1.3058695,-0.5338244,-1.3889916,-2.5507863,0.2005532,0.1778009,-0.1714631,-2.7245586,-2.1886537,-1.6538787,-0.4756280,0.2695186,-1.1079439,-0.4705990,-0.7127968,-0.3642727,-0.4917662,-1.3427050,-1.6515312,-0.7509685,-1.7388211
-1.0762311,-0.4138959,-0.5278078,-2.0214930,0.1639891,0.2898786,0.0155285,-2.8298557,-1.7041503,-1.9051267,0.2473201,0.0435989,-1.1627046,-0.3042917,-1.0869180,-0.4820198,-0.6888833,-0.9869740,-1.6631011,-0.9344627,-1.5506320
-0.7701647,0.2172528,-0.2582364,-1.4289755,0.4611939,0.4890944,0.0898509,-2.6503830,-1.1605811,-1.7168920,0.7515054,-0.2256363,-0.2601879,0.0912424,-0.9417571,-0.2669533,0.2927529,-0.2386663,-1.3056060,-0.8951736,-0.9922450
-0.8156776,-0.1324037,0.1190160,-1.5925953,0.7769482,0.7521177,0.3228476,-2.2848003,-0.9258237,-1.4255967,1.0275738,0.6068706,0.3118593,0.2205077,-0.4612046,0.1207738,0.5934362,-0.1419169,-1.0443857,-0.5309872,-0.5456786
-0.5339841,0.2588876,0.3523355,-1.4304930,0.8074794,0.6559730,0.6679041,-2.2756076,-0.4227472,-0.5881293,1.1810274,1.3073287,0.3295138,0.4909007,-0.0289298,0.8999634,0.3469971,0.1251111,-0.3607084,0.3085554,-0.1211138
-0.3813640,0.4899271,-0.0654786,-0.6903101,1.0058813,0.4387209,1.0054500,-1.5397695,-0.1234199,-0.6870402,1.5700240,0.4991561,0.1510560,0.5316284,0.2325902,1.0501965,0.6226072,0.3450755,-0.1194706,0.4187429,0.0367691
-0.1620315,0.5800510,0.2022937,-0.7450997,0.9350265,0.6756702,0.8677247,-1.5725746,0.0462114,-0.1219967,0.8857486,0.0517754,0.1978668,0.7568136,0.4124152,0.8404433,0.7151067,0.2972714,-0.1298916,0.1333457,0.2101644
0.0255925,0.1529587,0.3106977,-0.4433974,0.6382548,1.2641220,0.6789305,-1.8671864,0.3331452,-0.1970356,1.2782875,0.7705102,0.4708909,0.9234129,0.7902949,1.2066370,0.5573658,0.6915818,0.0938998,0.4199414,0.5555523
-0.4556551,-0.0527165,0.5517275,-0.3722666,0.4146315,1.5540463,0.9029174,-1.2204163,-0.4794346,0.1229776,1.6749446,0.7081581,1.0884755,1.0427793,0.8051390,1.1707739,0.7143720,0.7421113,0.3163113,0.6617112,0.4528375
-0.3810867,-0.2413116,0.2813890,-1.3730259,0.7423090,1.2601068,1.0268312,-1.6209946,-0.6877604,-0.0675449,1.9261004,0.9846228,1.2285843,1.1219699,0.3245212,1.7645122,1.0083064,0.5039206,0.0137891,0.6831960,0.5589499
-0.3421834,-0.0817972,-0.3169376,-0.9064800,0.8041510,1.2158871,1.1089733,-1.5414274,0.2533900,-0.3955914,1.4405311,1.5652634,0.8605870,1.1860516,0.2254291,1.7147894,1.1265463,0.4491546,-0.1875411,0.7864938,0.4720345
-0.0970446,0.0205208,-0.0484888,-0.0280339,1.0146309,1.5131516,1.0842066,-1.1186427,0.7369848,0.0517961,1.7848785,1.6487316,0.8640912,1.2496986,0.8248847,1.4741727,0.9505311,0.8850231,0.6562495,1.2780432,0.5143279
0.1320719,0.1678440,0.4835871,-0.9760396,0.8742936,1.6382668,1.0738224,-1.4224617,0.0213579,0.1227960,1.8280855,1.4218550,0.9103914,1.1586212,0.8923174,1.7495914,0.7336054,0.9878514,0.8845232,0.9176161,0.5734802
0.1009976,0.0549173,0.8076660,-1.0489936,0.6360211,1.4201549,0.9734935,-1.6157444,-0.2347526,-0.6498400,1.9946833,1.6550672,0.9023033,1.0477682,0.4822251,0.8624107,0.8454661,0.4970598,0.4403010,0.3030733,0.2318561
-0.4552097,-0.0441828,0.6149969,-0.8789307,0.1076367,1.7526991,0.8992833,-1.6441933,-0.2932395,-0.3326520,1.6550820,1.5980455,0.6462785,0.9588441,0.0125101,0.4267753,0.2558506,0.4301914,0.1011839,-0.3399263,0.1298471
-0.3044862,0.4794682,0.6650068,-1.3166775,0.1406564,1.9032969,0.8817597,-1.6780599,-0.6176231,-0.6551910,0.9351626,0.7000416,0.5011373,1.0394385,0.2151699,0.8946469,0.2466100,0.6892513,-0.3165551,-0.2734930,0.1791881
-0.3144719,0.5214331,0.6792072,-1.3468621,0.3888221,1.6907547,1.1396402,-1.7274668,-0.0515898,-0.5665985,1.3245742,1.4532517,0.5679331,1.1868069,0.3113753,1.0981989,0.2827341,0.9885020,-0.2456962,0.0614566,-0.1555938
-0.3133616,0.3813154,1.0857749,-0.9003969,0.3841015,1.6222175,1.4344914,-1.8385333,0.4193914,-0.2430523,1.2865090,1.5461028,0.7441314,1.2571509,0.3666537,0.8109040,0.4213319,1.1374253,0.2343002,-0.0884617,0.2685018
-0.2496498,0.6377141,1.1401129,-0.7545252,0.6413988,1.7321014,1.3836080,-1.3162371,0.2911688,-0.9381742,1.3233243,1.0020189,0.4647104,1.2535254,0.4954350,0.2983652,0.3374468,0.5111744,-0.1106406,-0.6222377,0.1600014
0.0177503,0.8811908,0.7747113,-0.8500646,1.1444348,1.8973213,1.3180848,-1.6457689,-0.5624365,-1.6063700,0.8133662,0.7819307,0.1980976,1.1493931,0.4761058,0.4271393,0.2516193,0.3053776,-0.2493888,-0.5495757,-0.4334071
-0.2339642,0.4242288,0.7956291,-1.3878632,0.7006594,1.4184835,1.6556494,-1.7732941,-0.4080689,-1.4829199,1.0134987,1.1627158,0.1610811,1.1307611,-0.0617246,0.0825270,0.2146100,0.3424545,-0.6515685,0.0122749,-0.6365473
-0.4418456,0.2492165,1.3630666,-1.3183194,0.7436257,1.4779088,1.7586801,-1.7566799,-0.7167503,-1.2791017,1.3092806,1.1343423,0.6763827,0.9766405,-0.0462601,-0.1853747,0.5528237,1.0925456,-0.4643574,-0.0093339,-0.0540991
-0.1615228,0.6174865,1.7121356,-1.0770599,0.5291405,2.1551318,1.5405877,-1.7457395,-0.4675741,-1.0421168,0.9178030,0.9295670,0.7009091,1.2486641,0.1965740,0.2184639,0.5268771,0.6885513,-0.2649111,-0.1233028,0.1055762
-0.1443756,0.5753090,1.3467189,-1.0576659,0.3290009,1.7513632,1.1622756,-1.9862812,-1.0327860,-1.0736333,0.6406745,0.9102017,0.0369227,1.3468549,0.1106606,0.2187521,-0.3429939,0.3983912,-0.3820896,-0.4545241,-0.1671589
-0.1011321,0.7937020,1.2668804,-0.9224783,0.3584174,1.2528087,0.9895397,-1.8599465,-0.7598917,-1.1854187,0.0656973,0.5041496,-0.0493957,1.0146053,0.0153392,-0.3956966,-0.2234994,0.4447425,-0.4854475,-0.7147961,0.3580743
-0.4710059,0.7220951,0.9171740,-0.8053030,0.6016008,1.5829606,0.6519222,-1.8937529,-0.4990283,-2.0687187,-0.4704395,-0.4728589,-0.0493280,0.4605727,-0.3859143,-0.5237026,0.3947740,0.2155077,-0.6679481,-0.8723809,0.0056709
-0.8998924,0.4931293,0.5056697,-1.4431340,0.3644157,1.2849420,0.8004094,-2.2605677,-1.5078312,-1.9379354,-0.7400826,0.2705048,-0.0519689,0.5423269,-0.7679638,-1.0480914,-0.3680213,0.0373018,-1.1538121,-0.7219198,0.0205398
-0.6449820,0.1749467,0.5457218,-1.5901244,0.1784824,0.8292866,0.9353185,-2.3727872,-1.7306837,-2.2196052,-0.5690696,0.6598761,-0.2118225,0.7508469,-0.6491278,-0.9767720,-0.1800326,0.4404978,-1.1141005,-0.4665993,-0.0254944
-0.3573929,0.5916618,0.2394880,-1.1606433,0.7433733,0.7090858,1.1038852,-1.7320824,-0.8283615,-2.2222362,0.1929807,0.3273142,0.2671779,0.9866204,0.0416539,-0.0676891,0.0426342,0.7072360,-0.7636395,0.1889888,0.4770919
0.1430461,0.8655323,0.4008462,-0.5149826,1.2016739,0.6666054,1.5036998,-1.0442486,0.0299457,-1.3873491,-0.1287032,0.5454453,0.8216928,1.0248742,0.1866644,0.1600519,-0.4935059,0.7564235,-0.4173342,0.1608533,0.2725081
-0.1484895,0.3776767,0.5083581,-0.4350604,0.3447987,0.5244188,1.1474253,-0.7309032,0.0727451,-1.1053411,-0.3120765,0.4711975,0.3021291,1.3315337,0.3074245,0.0411169,-0.1423346,0.6573173,-0.1874740,0.1568070,-0.0404986
-0.4589351,0.3702289,0.9706455,-0.6753129,0.2067172,0.6027253,1.0714291,-1.4186418,-0.5826638,-1.1479366,-0.2353925,0.8818017,0.2691257,1.2890260,0.2864023,-0.2222279,-0.1528563,0.5646297,-0.2933968,-0.4779202,-0.0378291
-0.3746342,0.6981998,0.6102604,-0.8435845,1.0036947,0.9248637,1.2999551,-1.4771059,-0.0413111,-1.4108932,-0.1216512,0.1245892,0.0817518,0.9035001,0.9065133,0.1684510,0.0250489,0.6110556,-0.1151782,-0.5391604,-0.0003367
-0.2956774,0.9847038,0.8823649,-0.6473790,1.3182626,1.0506974,1.3900059,-0.9849013,0.4649240,-0.8428063,0.6163505,0.7098581,0.0890146,0.9248942,0.7053286,0.0574399,0.2890096,0.9937664,0.0437225,-0.0851539,0.3082975
-0.0446101,0.7534679,0.5051612,-0.1891450,1.1372809,0.6897783,1.1828294,-0.7216526,0.5786897,-0.4598964,0.4543574,1.1528014,0.5677544,1.1530366,1.1383148,0.4047774,0.4506819,1.1301262,0.6719212,0.1118059,0.4383891
0.2005548,0.6113330,0.1652561,-0.3501142,1.0468701,0.8984691,1.0645498,-0.6393191,0.3270536,-0.2479362,0.3607839,0.5070974,0.2794114,1.3006047,1.4836279,0.1454928,0.0675683,1.0192291,1.1726623,0.3074020,0.6550267
0.4303256,0.7041168,0.6005816,-0.0444162,0.8185961,1.2500521,0.9357918,-0.4882934,0.6465511,-0.6602411,0.2376451,0.2423954,-0.1219762,1.0131346,1.1059020,-0.0803588,-0.2288448,0.4927316,0.5125989,-0.1509268,0.5235630
0.3527379,0.9691202,0.8918542,0.1764118,0.9237316,1.4425215,1.1591747,-0.2108907,0.5100718,-0.5666846,-0.0023731,0.3141032,-0.3488612,1.1234123,1.1431696,0.1877812,-0.0246766,0.7626121,0.4149024,-0.0882952,0.5252331
-0.0292729,0.5820140,0.8269439,0.2697005,0.8964673,1.2765793,0.9995038,-0.0402966,0.6126519,-0.3228467,0.1865930,0.0848943,-0.2438089,1.1648747,1.1017801,-0.2029415,0.4215166,0.9176453,0.8816872,0.1892709,0.6941792
-0.3543522,0.5135330,1.2631779,-1.0003240,0.5361311,1.4415957,1.5663019,-0.3934343,0.3239980,-0.8942111,0.3854601,0.0704299,-0.0922352,1.4050143,0.8817728,-0.1704988,0.7296422,0.7907898,0.6149681,0.3904366,0.7867720
-1.2679855,0.0433618,0.6683678,-1.7540592,0.3252672,1.2982682,1.4313571,-1.5274460,-0.0554961,-1.2152216,0.4660328,1.5872644,0.4326900,1.4534775,1.1736677,0.2789029,1.1026378,0.6979870,0.6250277,0.6615559,0.9766532
-0.3658554,0.5864310,0.4181407,-0.3851341,0.4251307,1.3266006,1.3322331,-0.7099468,0.6720972,-1.0214547,0.5357700,1.1999799,0.6353168,1.2978535,1.3272322,0.2492568,0.6487533,1.0021001,0.5053072,0.5622762,0.7455176
-0.0325371,0.8489093,0.5468554,-0.2261380,0.7847447,1.1045734,1.1083149,-0.2166159,0.1749675,-0.5426273,0.1204006,-0.0281752,-0.0941321,1.2377461,0.8062345,-0.3188830,0.3479663,0.4519643,0.1929452,0.3789915,0.0211123
0.7094412,1.1083803,0.0108010,0.1859343,0.8639731,0.7691284,0.9276249,-0.6518530,-0.1571186,-1.0847821,-0.7442513,-0.0386101,-0.6996434,0.6273718,0.7069522,-0.7870059,-0.2916621,-0.4048989,0.0271207,-0.4253978,-0.5446221
0.9309723,1.1245639,0.0748099,0.8062069,1.0988286,0.4455626,0.7344485,-0.3329568,0.2042646,-1.0099419,-0.9994869,-0.6586246,-1.2068335,0.3196049,0.8913519,-0.5825176,-0.5619152,-0.1960435,-0.0105756,-0.8668391,-0.1441313
1.1116496,0.8154182,-0.3409933,1.1417572,1.8304625,0.3422514,0.2573109,0.2154771,0.7516032,-0.8397672,-0.9512698,-0.6330718,-0.8301594,0.3799550,1.9352839,-0.1392751,-0.1795763,-0.1622884,0.4209945,-0.2683590,0.4123017
2.1091769,1.1390779,0.0673937,1.4577687,1.8058752,0.3966592,0.5233850,0.6853500,1.4157656,-0.3945371,-0.7512264,-0.1572576,-0.7675628,0.4747390,1.7881628,0.2765978,0.0775918,0.3249834,1.0465657,0.0845398,0.6111207
1.9099963,1.4428535,0.2770020,2.0733745,1.9924426,0.4742182,1.3235137,1.0601732,1.6234519,-0.3244689,-0.3254360,0.6366645,0.0115511,0.9734430,2.1844299,0.6896554,0.3086752,0.7630101,1.3656831,0.0516853,0.8823098
1.7274771,0.8540606,0.2460148,1.9873692,1.4062086,0.7217678,1.5913141,1.5742286,1.8510684,-0.6893175,-0.5336379,0.5417598,-0.2833903,1.0423746,2.2102239,0.3852168,-0.1805705,0.6502163,1.5682973,0.0808689,1.0790323
1.3171915,0.4987745,0.4819777,1.1574222,1.5387144,0.7720711,1.3086470,1.8525697,2.0338182,-0.4186490,-0.5785198,0.1544438,-0.2973218,1.0074719,2.1707375,0.3074670,0.5276086,0.9704880,1.5663326,0.4175493,1.3508571
1.4213274,0.7075165,0.1224169,0.9132448,1.6585685,0.4523591,0.6487299,1.1767683,2.2988186,-0.2612474,-0.5023627,0.7126961,-0.1463415,1.4405394,2.0977688,0.0497306,0.6468716,0.9745446,1.5741107,0.2899582,0.9311580
1.1380682,0.7838334,-0.1528682,1.0100687,1.4103732,0.2319306,0.3469447,0.4913270,1.5351455,-0.4083785,-0.8066826,0.2825775,-0.6809638,0.8515843,1.9860533,-0.0969178,0.2765360,0.6048448,1.4087918,0.5201074,1.1076478
1.5158364,0.9838111,-0.1650978,1.0607767,1.6883930,0.9830022,0.6218249,0.6476207,1.9452876,0.0741726,-0.8861024,-0.1411677,-0.7375156,1.1217144,2.0309808,0.3281247,0.4618109,0.7251471,1.7455266,0.4556314,1.2693594
1.1566613,0.9017527,-0.0126069,1.3378712,2.1307158,1.1880563,0.8865151,0.8414604,2.3522880,0.3375995,-1.3034337,0.2998699,-0.0846639,1.4562289,1.7294843,0.6101906,0.3764399,1.0442924,1.6947762,0.7929196,1.3066175
1.3224864,0.7709426,-0.1805708,1.5927547,2.3082044,1.0619311,0.8860695,0.8543164,2.1050162,0.1876291,-0.6122626,0.5738214,0.2064727,1.3590651,2.0463700,0.9135122,0.3865112,1.0439243,1.3368479,0.5893400,1.3941866
1.2558413,1.2242377,-0.0477412,1.4461370,1.7479372,0.2768776,1.2525526,1.3096806,2.3819613,-0.0254230,-0.7061566,0.0552321,-0.1046311,1.2617118,1.9895729,0.5905941,0.8209219,0.8342068,1.5521719,0.4796753,0.9668846
1.3129498,0.9614552,-0.1896093,0.6721827,1.1545773,0.1356764,0.7975270,0.9156696,1.8184986,-0.2482079,-1.1746428,0.1626695,0.0029009,1.1720064,1.3917165,0.4914113,0.0868413,0.5215445,0.8329959,0.1630132,0.2276617
0.7388178,1.0030493,-0.5235087,0.2437227,1.6348298,0.2964625,0.2882055,0.0441098,1.3782316,-0.4429149,-0.8935369,0.5198988,-0.0756969,0.8263428,1.1571088,0.1588825,-0.1891539,0.6011721,0.5293171,0.2198718,0.1987886
0.6814518,1.0865736,-0.6398998,0.2405300,1.5417197,-0.0198449,0.3201927,0.1668413,1.1902920,-0.1956992,-0.5919135,-0.3213252,-0.5279318,0.8631809,0.7582208,0.0313055,0.0402467,0.4274123,0.3108986,-0.0255238,0.1082861
0.8575776,1.0046990,-0.4762949,0.0691096,1.9983630,0.3133234,0.4265110,-0.0646039,1.4591194,0.3165964,-0.2400671,-0.1651838,-0.5688485,0.9199782,0.8533565,0.2873667,0.2095969,0.4575362,0.2277518,0.2846774,0.2935245
1.0207361,0.7801651,-0.2285724,-0.0659356,2.1138322,0.3889516,0.5707397,-0.2817540,1.4453857,0.0261015,0.1313211,0.6915566,0.0522458,1.1497260,1.3520505,0.8489804,0.9760152,1.1535174,0.5170400,0.7685540,0.8803471
0.9941322,0.6240836,-0.3758426,0.6301184,2.0757663,0.1860819,0.5256909,-0.3180031,1.5088286,0.5905832,0.3922039,0.4724091,0.2043590,1.2552748,1.3012317,0.8287386,1.3623977,1.1425475,1.4134380,1.3550947,1.3269840
0.8452941,0.6992505,-0.3914519,0.6258824,2.4378638,0.8807738,0.6099663,0.3206089,1.5809577,0.7706267,0.3811106,0.3196842,0.3942662,0.9733483,1.5191935,1.1578970,1.1966872,1.0800562,1.7077069,1.4885316,1.4352198
0.7147961,0.6562850,-0.1419271,-0.0152401,2.1407943,0.8609192,0.8005604,0.3161067,2.1266522,0.8180605,0.3104241,0.5129692,0.2759935,1.1883551,1.6155776,1.3694416,0.9865029,1.2836901,2.2388248,1.0395997,1.5359775
0.9999164,0.7282843,-0.3319942,0.7434779,1.6006062,1.1553731,0.9219045,0.4026754,2.2433493,0.5071167,0.3735667,0.5015415,0.3250824,1.4295633,2.0960603,1.2661349,0.6546909,1.6675237,2.5654135,1.0705482,1.6546301
0.9666316,1.0918001,-0.5585680,1.1730179,1.2668775,0.5384909,0.8496014,0.7153502,2.2750490,0.7673690,0.6202970,0.2384373,0.4811041,1.3249949,1.9957125,0.7336526,0.7770142,1.7960181,2.2596941,0.9716361,1.4168431
0.8518394,1.2958786,-0.3853858,0.6534346,1.4203573,0.8611391,0.9160882,0.7830156,1.9863204,0.5476151,0.8156247,0.7278641,0.9589647,1.1106875,1.9613770,0.9112431,1.2957765,1.7514678,2.1587141,1.1545637,1.8843817
0.8873580,1.0489039,0.2365495,0.7710853,1.3537515,0.6500622,1.1411172,0.6535238,2.3497562,0.3834271,0.3616831,1.0920888,0.5781579,1.4203216,1.7368845,1.2057042,1.4573755,2.0765946,1.9700702,1.3417387,1.9141330
1.0112756,0.7331927,-0.0465223,0.6885877,1.0580959,0.2976150,1.0540739,0.5119926,1.8492485,-0.1957079,0.5329576,0.3321853,0.2371388,1.6696937,1.5702482,0.9787930,0.7482716,1.6629547,1.6869760,0.7993763,1.2761109
0.9696522,0.8624053,-0.0011892,0.0675203,1.0299727,0.1975259,0.5830342,0.3280637,1.1615099,0.1889078,0.4395920,0.0440334,-0.3602944,1.4119413,1.4330873,0.4260796,0.6647533,1.2921296,1.3683012,0.3898757,0.7111939
0.5863420,0.8268902,-0.4644951,-0.3151029,1.0128073,-0.2748424,0.2957457,-0.0986619,0.9854715,-0.0561325,0.1815001,0.5275083,-0.2715403,1.0448669,0.7360300,0.1338665,1.0301740,0.8237987,0.9764443,0.1060173,0.5685618
0.8796280,0.7030243,-0.2192876,0.2334531,1.2691497,0.1863099,0.0515426,-0.2595770,1.0496277,0.0794178,0.3547748,-0.2061159,-0.5423082,0.8128357,0.8422245,0.5065582,1.0391897,0.8415059,0.9420671,0.1805839,0.7661557
0.8663939,0.9085913,-0.0473896,0.0637992,1.4808193,-0.2315698,0.3302179,-0.2336494,0.5399435,-0.2721736,0.4260700,-0.1958185,-0.4832722,1.1555177,0.9524251,0.5970345,0.8764156,1.0930508,0.9611614,0.2976389,0.4618397
0.5268633,0.9033934,-0.3858355,-0.4660673,1.0617020,-0.1830423,0.3090881,-0.8698099,0.0526355,-0.8379451,0.3189705,0.0905428,-0.5568872,1.1690085,0.4731981,0.1384413,0.3817137,0.6076114,0.7624589,0.2085921,0.1221781
0.0746913,0.5262388,-0.6523736,-0.7156367,1.1790069,-0.7771069,0.1284250,-1.0289824,0.4938690,-1.1907520,-0.1269539,0.1123535,-0.6809885,0.8810617,0.3680712,-0.1222090,0.5986862,0.7325959,0.7085721,0.4182463,0.1538995
0.6353276,0.8409682,-0.2730689,-0.7129648,0.8443954,-0.3726552,0.5805355,-0.5230371,0.6048585,-1.2712938,0.7251946,0.0907437,-0.5367718,0.8133522,1.0023240,0.3062515,0.8092234,1.1506666,0.8204097,0.5870517,0.5973851
0.2647939,0.4843504,-0.4136809,-0.8127585,0.7516533,0.2401181,0.5591888,-0.2824854,0.2260240,-1.3301746,0.3874770,0.0503056,0.1065868,0.6391623,0.5929716,0.2364048,0.7023196,1.0278654,0.8750266,0.5619644,0.6312132
0.0153824,0.1882078,-0.6144466,-0.7131720,0.5369259,-0.0795308,0.3079744,-1.0627859,-0.5575016,-1.1740361,0.1204485,0.0692846,-0.2032384,0.6314076,0.8446368,0.6606953,0.8702674,0.7883609,0.8432877,0.5985554,0.6532249
0.2591808,0.7456102,-0.7635107,-0.2898329,0.6624374,-0.1805812,0.3148783,-1.0920825,-0.3857207,-0.8536350,0.4077963,-0.4899543,-0.2876661,0.6826367,1.2035702,0.4512144,0.9081891,1.0476604,0.5613874,0.6118423,0.5288153
0.2723677,0.8429029,-0.3191238,-0.3360745,1.0805484,-0.4136416,0.5057679,-0.9020951,-0.1708737,-0.9244578,-0.0913731,-0.2809237,-0.0990346,0.7475176,0.9259288,0.4956256,0.9950818,0.8649036,0.5332791,0.3833912,0.6583593
0.5764213,0.6036850,-0.3836534,0.1219314,1.4001471,-0.1419812,0.9413832,-0.7413277,-0.0509784,-1.2691801,-0.7648489,-0.1526365,0.0684022,1.1421444,1.5070208,0.4867294,0.9001224,1.3291547,0.7934988,0.7008536,0.9648764
0.8162946,0.5741478,0.0260606,0.3903768,1.3883785,0.2651940,1.3131970,0.1229756,0.6052089,-1.6108819,-0.3450500,0.0566939,0.0144995,1.5865562,1.6347935,0.7459870,0.8731961,1.7157259,0.9571457,0.9137790,1.2003436
0.7298964,0.5520038,-0.2625331,0.3301182,1.2240808,0.4746141,1.2190478,0.2367637,0.4981249,-1.8380390,-0.1789225,-0.8678621,0.1075259,1.5006651,1.1979077,0.2460657,0.6158260,1.4072311,0.9619565,0.8947440,1.2599267
0.2606133,0.4127984,-0.1170813,-0.0708870,1.3123492,0.8177273,1.0334530,-0.1786434,0.5836716,-2.1078286,-0.0430690,-0.1764786,0.1817597,1.3770597,1.1060700,0.6539524,0.8324167,1.8357440,0.8202625,0.8873361,1.1360332
0.4594376,0.4997223,0.3564979,0.1053713,1.1111382,-0.0583486,1.1084321,-0.4073946,-0.0608080,-1.4128785,-0.3292744,0.7610319,0.2827806,1.3229598,0.7153327,0.1430868,1.1109043,1.9151103,0.6448500,0.7626432,1.3159909
0.3956330,1.1671579,0.3231124,-0.2097424,1.1535444,0.4689775,0.9791552,-0.2587503,0.0092132,-1.3153645,-0.3328258,0.5968106,0.2799096,1.2856151,0.8994083,0.3040228,1.1096205,1.5139769,0.9964449,0.7115006,1.3202953
0.0333831,0.8606046,0.1062225,-0.2628182,0.5916389,0.6242900,0.8278112,0.0205066,0.2471343,-1.4315253,-0.4714423,0.7400718,0.3682457,1.1119660,1.0887291,-0.2081772,0.9997506,1.3044924,0.7244215,0.3637829,0.8023064
0.3852092,0.6026738,0.0460754,-0.1453595,0.5918829,0.2924283,0.5323893,-0.0625359,0.5207233,-1.8228072,-0.4288060,0.6406394,-0.0235557,1.1689664,1.1750333,-0.1832575,0.8470513,1.2886668,0.6722360,0.3265959,0.9739347
0.2702877,0.7030461,0.1641137,0.0449836,1.0996470,0.8519398,0.8829795,-0.1526589,0.3315503,-1.8835342,-0.5835425,0.3221247,0.2464118,1.0685074,1.4553378,-0.0050755,0.8249227,1.0838891,0.9435266,0.4695461,0.9219066
0.4397637,0.9262642,-0.2093640,-0.4237338,1.2908366,1.0056790,0.7667419,-0.4284041,-0.0928342,-1.5391791,0.2019145,0.2531940,-0.0184899,1.0982797,1.3116083,0.3731748,0.7706012,1.1274346,0.5282270,0.7923085,0.7422022
0.8086264,0.8234369,0.0514913,0.1879292,0.9363636,0.3415561,0.9689257,-0.3065455,0.8632919,-1.4878320,0.2915701,0.6687702,0.2340699,1.2327858,1.3134549,0.9888588,0.9138575,1.0746759,0.8937192,0.7800351,0.6195296
0.6357671,0.7553915,-0.3526687,0.3132301,0.7487115,-0.0596011,0.9054957,-0.3506569,0.3738822,-1.2868420,0.4584548,0.6073275,-0.0337921,1.0164061,1.5028887,0.6701081,1.0216855,1.0261861,1.3180532,0.6045998,0.9609187
0.5533426,1.0942087,-0.1560810,-0.1970066,1.3843201,0.0695227,0.5244159,0.0010497,0.3099796,-1.0209845,0.9508350,0.6523469,0.1505296,1.1864425,1.3991015,0.4601355,1.1221784,1.1706314,0.9825278,0.5596456,0.6199783
0.3065448,0.7798129,0.0532537,-0.3253891,0.8221233,0.2894860,0.6828837,0.0472854,0.7339995,-0.9824220,0.2391071,1.0444986,0.3040856,1.1399919,1.5840983,0.2253338,1.1574748,1.1102643,1.2567385,0.5851830,1.1154630
0.3770246,0.6628292,0.3698716,0.0755147,0.2741748,-0.4633362,0.5221046,-0.0585606,0.7456400,-0.6591731,0.3450779,0.4629815,-0.0607735,1.0707273,1.3639182,0.4645516,0.7836053,0.9955328,1.3269773,0.6092379,0.8510730
0.3415250,1.0604607,0.0144823,0.0835207,0.7021086,-0.3133037,0.6110232,-0.0273404,0.6948509,-0.8708953,0.5441868,-0.1413119,-0.0020926,0.6620948,0.7271559,0.7943555,0.8257965,1.0912576,0.9583117,0.3938639,0.8635594
0.5232266,0.9153017,-0.2743647,-0.3523418,1.0801629,-0.1309061,0.7268016,-0.1135679,0.5419410,-0.8606924,0.4910745,0.4252200,-0.2156663,0.7718549,0.8851051,0.4977922,1.3624916,1.2329437,0.8338396,0.4577313,0.7335098
0.4870210,0.6477389,0.0574889,-0.1377614,1.1527075,0.5567270,1.1338991,-0.1528509,0.0405768,-0.8017280,0.6859111,1.3012156,0.3729315,1.0463411,1.4284524,0.8696966,0.8629139,1.6731420,0.9296870,0.4936705,1.0437764
0.4409440,0.9784439,0.6540927,0.2501502,1.1797608,0.5453666,1.4453404,-0.0777879,0.3456985,-0.5184093,0.6192026,0.6290933,0.6160756,1.1547103,1.4261998,1.2709177,1.1578716,2.0054042,1.6548127,0.8822156,1.5074149
0.6255161,0.9967121,0.6968780,0.4067245,1.7488643,0.3087699,1.5037651,0.1148062,1.1507519,-0.4122201,0.9204410,0.4567079,0.8597007,1.2666569,1.9352543,1.2742429,1.5873618,1.8078451,1.8147328,1.4015121,1.7972440
0.8309060,1.1855265,0.7394872,0.4486082,1.6919401,0.3103465,1.9260446,0.3651315,1.7174612,0.1180738,0.8035004,1.1698869,0.6990373,1.5249146,2.2347465,1.5631466,1.6873581,2.1471953,2.2129302,1.6850451,2.1196454
1.3025438,1.0799487,0.7257097,1.4392831,1.4782284,0.6290594,1.9633117,0.9188929,2.2440810,-0.0061894,0.9227077,0.4762914,0.8214294,1.8453698,2.4464502,1.8505075,1.6758075,2.4145973,2.6000965,1.6132146,2.2179825
1.3345484,1.1650819,1.1212181,1.2271832,1.8460873,0.5449749,1.8818158,1.3393527,2.3691175,-0.5497243,0.9009241,0.1684707,1.0696824,1.8920248,2.5598252,1.7702309,1.5960165,2.3042057,2.0994074,1.8356798,2.1291015
1.0474253,0.9060502,1.2212820,1.0845672,1.8446065,1.0718117,1.6589662,0.9841551,2.5395429,-1.3829814,0.3901106,1.1592971,0.8797386,1.7812712,2.7447040,1.8303007,1.4209037,1.9184712,2.2513349,1.8073580,1.5398403
1.2073114,0.5985786,1.0272536,1.1658291,1.6924874,0.5109659,1.6450279,1.3919113,2.4070473,-1.4186128,0.7272874,0.8229005,0.9930944,1.4530252,2.3371079,1.8784773,1.9670367,1.9460530,2.4958811,1.8071655,1.3040776
1.0206165,0.9568608,1.0219600,1.4388919,1.7725023,-0.1459236,1.8524218,1.6820174,2.2101123,-1.1072787,0.7727854,0.3857745,1.5424098,1.6402006,2.2840581,1.8185143,1.5872980,1.8507520,2.6699486,1.8460568,1.5828291
0.8579724,1.0503643,1.2082268,1.1438869,1.6012549,0.5012462,1.8052562,1.8434235,2.6702380,-1.0330940,0.9585187,0.8387505,0.9666888,1.4819467,2.4545476,1.7108443,1.4411058,1.7722682,2.1337092,1.5907861,1.6935220
0.9164758,1.0759505,1.1213498,1.3737148,1.3267585,0.6062140,1.5182618,1.3430264,2.7024105,-0.9604319,0.8330048,1.0522908,0.9802355,1.2515056,2.3680904,1.5419570,1.6634678,1.8064411,2.3562584,1.6652966,1.7832587
0.9996796,0.9638575,0.7291389,1.6051513,1.0759727,0.8341470,1.5649595,1.1790023,2.5328577,-1.2218460,0.7476368,0.8579168,1.1936997,1.4436313,2.5001104,1.7018623,1.5819021,1.8790739,2.4219806,1.9168417,1.7176574
1.0891768,0.9152645,0.7234531,1.8937459,1.3180848,0.9828280,1.9119548,1.3071926,2.9663970,-0.5185547,0.8988698,0.8115138,1.3014485,1.5326943,2.5973997,1.9566375,1.9764224,1.9679831,2.5484080,2.2279568,1.7335560
1.4974643,0.5390753,0.8362942,1.8512776,1.3525208,0.6464323,2.0448618,1.5388243,3.2666268,-0.3782742,1.5755244,1.8972911,1.4497157,2.0442226,3.1658664,1.9472860,2.1660283,2.2351115,3.1123474,2.7868814,2.1368871
1.4824009,0.9734829,1.0708070,1.5238985,1.4762354,0.6191025,2.1826165,2.1906271,3.5038340,0.1470345,2.0703993,1.9827865,1.7232405,2.0503242,3.0655262,2.2359836,2.7505186,2.4169011,3.1520011,3.0279830,2.2583416
1.2645153,1.1249167,1.7442288,1.1854532,1.6189094,1.1701221,2.0633507,2.3119783,3.4872329,0.3899714,2.9751949,2.0433414,1.7278780,1.8005651,2.8400989,2.5915937,2.5686278,2.4383166,3.0900714,2.9715390,2.1687727
1.1773692,0.5254518,1.5348947,0.9905548,1.0012918,0.5156870,1.6114731,2.2475305,3.0179908,-0.1064663,3.0050528,2.5428720,1.8929530,1.7182385,2.1719277,2.1227932,2.5660527,2.0670455,2.4375105,2.4505877,1.7196559
0.5474340,0.3925632,0.9871790,0.9828383,0.9255286,-0.0568138,1.4507531,1.5276973,2.3351014,-0.3666479,2.1978617,2.1141269,1.3658222,1.6502323,2.0649152,1.9227442,2.6115315,1.9935364,2.3908112,2.0608261,1.3832961
0.3778200,0.2621451,0.4934695,0.2569905,1.2141142,0.4199683,1.3556970,0.4127512,1.6239631,-0.9675426,2.2887802,1.5543139,0.7145374,1.3732471,1.5894176,1.4913542,2.7014103,1.9421494,1.7156643,1.9193090,1.3433350
-0.1739750,-0.0339369,0.6103800,-0.5170204,0.3528203,0.4551874,1.0222363,-0.2194665,0.9431820,-0.7796320,1.6232865,1.7786582,0.6250091,1.3090793,0.8067369,1.1661209,2.3426161,1.6177152,1.2093033,1.5651131,1.1072834
-0.1503294,0.0551708,0.5926794,-0.8057747,-0.3029335,0.1577283,1.0694975,-0.7775239,0.7610204,-0.7098277,1.7793792,1.8817016,0.8149976,1.4890826,0.5775290,1.4830735,1.8653824,1.3531555,1.1955612,1.1574557,1.0737791
0.0814875,0.3471857,0.2507535,-0.7541459,-0.0888853,0.7669010,1.1414481,-0.6215067,0.2792011,-1.9852920,1.5554299,1.6163704,0.7491686,1.3357983,0.4209319,0.9444402,1.6150868,1.0578418,0.9631294,0.8176212,0.7596309
0.0541026,0.1041248,0.0097493,-1.1471995,-0.1434750,1.1032596,0.7380225,-0.9393705,0.0204173,-1.8281462,1.4136271,1.0877254,0.2532673,1.0487057,0.7260448,0.4033358,1.5522341,0.9098434,0.7140293,0.6190118,0.5593426
-0.0127960,-0.0353713,0.6125984,-1.0162568,0.2652365,0.5405227,0.6784363,-0.8145065,-0.3214542,-1.9226066,1.2348443,1.4641827,0.3841859,1.0018920,0.4944204,0.5039646,1.5129613,1.4208515,0.8234304,0.8581293,1.1000016
0.1808752,0.5947045,0.6747034,-0.9316539,-0.1349104,0.4011246,1.0033696,-0.4971879,0.4885021,-2.0848730,1.4190918,0.7744572,0.7569375,1.1762451,0.7621776,0.7387649,1.3698962,1.6281765,0.9284020,1.0070504,0.9044021
0.3931726,0.8068983,0.0829486,-0.8912286,-0.1493653,0.5423179,0.7748830,-0.1726559,0.9026541,-1.8454762,1.0432485,0.3133642,0.9374659,1.2705364,0.7608622,0.8228969,1.3281478,1.4495996,1.2882150,1.0270483,0.7981972
0.0326792,0.2538428,0.0128510,-1.1720134,0.1703533,0.1905747,0.3634146,-0.1764179,0.6799633,-1.9355320,0.4390094,0.6017741,0.0370947,1.0250026,0.5406840,0.5937490,1.1063293,0.8772267,0.9775516,0.6605144,0.6259878
0.3095022,-0.3719567,0.0808307,-0.5177248,0.5147204,-0.2141086,0.5599554,-0.1137022,0.1991107,-1.7617851,0.5346922,1.0231564,0.0717562,0.8294871,0.6032874,0.2944971,1.2445971,0.6815502,0.3761550,0.3100441,0.6443759
0.5018780,-0.0083950,-0.3323910,0.0847797,0.5565285,-0.5249170,0.3429119,0.1175438,0.1042596,-2.0185094,1.4396113,0.0955544,-0.0886433,0.6117610,1.0049700,0.4965026,1.5490258,0.4741775,0.6105055,0.4454296,0.1783785
-0.0077763,-0.0763583,-1.0403541,-0.0651585,0.6436736,-0.0366775,-0.5243032,-0.0852010,0.4632457,-1.4542558,1.6783445,0.5700939,-0.1047790,0.0746997,1.3344885,1.1336217,1.2864932,0.7368446,0.9137642,0.6404839,-0.2242932
0.0881979,0.0719529,0.3256460,0.4262344,0.4897134,0.1932898,0.5920771,0.1841840,0.7304180,-1.0731239,0.8636276,1.2939733,0.1999502,0.7944283,1.5781882,0.9042789,1.5761168,0.9797250,1.0863140,0.8708924,0.3636833
0.8125923,0.3737543,1.0472574,0.7298486,0.3380320,-0.0387097,1.5596727,0.7509300,0.8284141,-1.2685620,1.4024549,0.9082795,0.6222088,1.3899212,1.4900826,0.5218229,1.7352620,0.9842020,0.9139600,0.5538687,0.2693565
0.7283165,0.3631592,0.8723931,0.6466298,0.8729653,0.5692762,1.5490936,0.4185262,0.7073028,-1.6395223,1.5697154,0.9061024,0.7011564,1.3579606,1.0711354,0.4133160,1.4766772,0.9888425,0.4762321,0.6420646,0.1520613
0.1689548,0.2210581,0.8922817,-0.1085874,0.4013491,0.3862835,1.5341383,0.0374332,0.4203479,-2.0366657,1.2349414,1.4374784,1.0646230,1.4070307,1.0925837,0.6821460,1.3799739,1.1280828,0.5124478,0.9991624,0.3443303
-0.4458368,-0.3111479,0.8298686,-0.4427795,0.1276571,0.8144702,1.6349548,0.2392420,-0.6898273,-1.6344557,1.3521041,1.3946186,0.8556467,1.3309257,1.1206251,0.8934562,1.7189422,1.9402726,0.6691610,1.0273662,0.8256279
-0.1300068,0.2964869,1.8983371,-0.4988531,0.4978613,1.7392608,2.2108412,0.2980503,-0.2139649,-1.5094506,1.1341102,1.1912957,0.9491167,1.5882601,1.1032972,0.7633197,1.8938738,2.1003149,1.1285429,1.4218966,1.2010942
-0.3033473,0.6072286,1.8853750,-0.8410258,0.4860738,1.1620237,2.1616347,-0.6832260,0.0248020,-1.0203302,1.0572722,1.6819415,1.5117462,1.9541860,0.7311458,0.8717482,1.9204823,2.4208281,1.0453374,1.5035073,1.0896608
-0.4713870,0.3511109,1.9379418,-1.3068798,0.1434075,0.8560514,2.4319055,-0.9960797,-0.3552287,-1.0659304,1.1336672,1.6233927,1.7248789,2.0821202,0.4255230,0.7974223,2.1370957,2.2959404,1.3699948,1.9046971,1.3696862
-0.3529033,0.3173201,1.8525379,-1.2312430,-0.1411988,1.3330616,2.3720288,-0.8502638,-0.4860484,-1.8266443,1.1756136,1.5081708,1.7505118,1.8361027,0.8532517,0.5905833,2.1384580,2.0079334,1.2648270,1.9603013,1.7373723
-0.2758459,0.2975537,2.0024760,-1.6635019,-0.0087892,1.5769168,2.0406761,-1.0720987,0.0258772,-1.6839455,1.0087531,0.9656655,1.4616945,1.7806234,0.3540716,0.0170318,2.0465589,1.7178057,0.8351451,1.5171690,1.0532595
-0.3598365,-0.0017195,2.0127201,-1.9645903,-0.3651369,1.1803157,1.8589908,-1.3001462,-0.8503839,-1.7733364,0.6915043,0.9814352,1.0613997,1.4493194,0.1461979,0.0559496,1.7480714,1.6952283,0.7339685,1.1837126,0.5424269
-0.2731446,0.3886010,1.6113023,-1.4195296,-0.1922628,1.0465000,2.1407743,-0.8999030,-0.8335970,-1.8455427,0.8596052,1.1265832,1.1414361,1.5141597,0.2131350,0.4474356,1.7093476,1.5331289,0.9572058,1.2492470,0.6522961
-0.4954575,0.4386196,1.3517543,-0.9320827,0.2602957,1.4741955,1.9162252,-0.3528143,-0.2404650,-2.4585118,1.0199065,0.8830669,1.1946474,1.6606470,0.7162207,0.7589741,1.5899532,1.4554040,1.1603068,1.1988573,0.8135051
-0.6691751,0.2084479,1.7752012,-1.3015159,0.2379201,0.9100218,1.6051322,-0.0380263,-0.1658138,-1.6586211,0.9327826,0.7319320,1.2327102,1.5810118,1.0228974,0.8629686,1.5341895,1.5745865,1.3557230,1.3804358,0.8531538
-0.3778870,0.2890924,1.5301917,-1.1015658,0.1587985,0.6658013,1.8117145,0.0711857,-0.0871182,-1.7493795,0.9691155,0.9650906,1.3586124,1.3955560,1.0724237,0.6904646,1.4682901,1.3170779,1.5395889,1.3887671,0.8852432
-0.1524758,0.6208909,1.6740825,-0.9986739,0.1945433,1.3000427,1.6171639,-0.2787477,-0.2140397,-1.8736824,1.3818313,0.6936055,1.3776801,1.0460098,1.0633796,0.8060485,1.6378787,1.1402930,1.2925025,1.1987364,0.8062130
-0.6146775,-0.2563752,1.9314889,-0.9516279,-0.0701013,1.2229266,1.6390212,-0.5210844,-0.0021555,-1.5802712,1.2244185,1.4689599,0.8477861,1.0886419,0.7616696,0.7354894,1.3187788,1.0036014,0.8225660,1.1771253,0.6314035
-0.7675933,-0.1757206,1.6490353,-0.5103419,0.1712316,1.1743779,1.6087325,-0.6991706,-0.0249311,-2.5187035,0.9678074,1.2298846,0.7131454,1.0871364,1.0115612,0.5169549,1.6152916,1.0518639,1.0197380,1.5565883,0.4851052
-0.6050822,0.5107904,1.7653749,-0.6911480,0.2735167,0.9600644,1.5241469,-0.4348966,-0.4937136,-2.3748727,0.7430192,0.6635771,1.2360650,1.3444697,0.3717557,0.7116596,1.6595327,1.0653472,0.8669651,1.0815804,0.5861599
-0.7280199,0.2427737,1.8582450,-1.2800584,0.1389784,0.8683397,1.5567710,-0.7212291,-0.5421566,-1.6118571,0.7074683,0.4321997,0.9580922,1.0545516,0.1145318,0.1223828,1.1386529,1.0827379,0.6476086,0.7863086,0.4606759
-0.8814644,-0.1389405,1.6210250,-1.1691251,-0.1037433,0.5996124,1.8241551,-0.8587095,-0.6048312,-1.8341087,0.2452741,0.7560061,0.5049912,1.3054643,0.0966744,-0.1769995,1.4097853,1.6770569,0.4600447,1.2580441,0.9130914
-0.6202891,0.2498173,1.8826777,-1.5314902,-0.1211051,0.8096445,1.9024709,-1.4580996,-1.0852146,-2.1025863,0.3983932,0.4738824,0.7802543,1.4821709,-0.1839045,-0.2056877,1.8051891,1.4699806,0.5445088,1.1379881,1.1687205
-0.7235157,-0.0543426,1.5774696,-1.9163406,0.3129027,1.1625693,1.6411477,-1.8739259,-1.0486280,-1.4407513,0.3743813,0.1303284,0.3209161,1.3978101,-0.3321323,-0.1684187,1.3545476,1.1494869,0.4617078,1.0269514,0.9488175
-1.0362957,-0.0989549,1.3172061,-1.7676812,0.0988108,0.9007246,2.1904304,-2.1834881,-0.7330068,-1.5934862,0.4860404,0.8141741,0.5705339,1.4554989,0.0821136,-0.1587090,1.5416054,1.4766870,0.5294394,0.8261434,0.7495901
-0.7939077,0.1559868,1.7742859,-1.1386373,0.3597821,1.2258945,2.4349611,-1.7105849,-0.4646285,-1.2586292,0.6714675,1.0724875,1.2158513,1.4733893,0.6128856,0.1920985,1.6620495,1.9585477,1.7050658,1.1200404,0.9763213
-0.0627830,0.7856261,2.2617540,-0.4977797,1.1343707,1.2723309,2.3816729,-0.9523669,-0.0875382,-1.2771283,0.7819466,0.2687704,1.5451014,1.8480990,0.7395684,0.6534178,1.6107976,2.3412857,1.5429413,1.6646777,1.1164818
-0.1951004,0.8718718,1.7617586,-0.9162623,1.5737692,1.1465880,2.4615209,-1.0846049,0.5521331,-0.6533248,0.8288800,0.9915468,1.3280618,1.8976599,0.8942218,0.8578441,1.5524265,2.1075280,1.2983748,1.3741722,1.1630954
-0.2787231,0.6610556,2.3762126,-0.2790222,1.5934190,0.8829362,2.1809309,-0.2128233,0.3865942,-0.3079390,0.7034963,0.8840217,1.2493004,1.8343818,0.7806031,1.2145106,1.6544348,1.9094821,1.4953074,1.4481815,1.2548680
0.1203396,0.9630557,2.0366766,0.0356909,1.2567847,1.2217816,1.6683439,0.8214977,0.7183899,-0.3116471,1.5406278,0.8869445,0.9495278,1.8889240,1.0579889,0.8978135,1.5175834,1.6410459,1.6689337,1.4596075,1.0809155
-0.0274355,0.7500587,1.8079393,-0.4167554,1.0682063,1.6572043,1.9001694,0.0920958,0.5310344,-0.5977486,2.0803375,1.6389499,1.0319418,1.7734829,0.5330634,0.5259724,1.5604249,1.5617670,1.2287464,1.7451967,0.8539516
-0.2058228,0.5057583,2.5841279,-0.4242831,0.8878314,1.0606073,1.8626260,-0.5873979,0.1546838,-1.2251583,1.7255158,1.7634448,0.9524693,1.4995281,0.4405293,0.8358430,1.5392315,1.2112541,1.1791712,1.5937198,0.2886479
-0.3746605,0.7753302,2.0751085,-0.7517154,0.3220106,0.8651121,1.3801311,-0.7510059,0.1020897,-1.3484696,1.3678261,1.1069173,0.7898853,1.5530382,0.3320726,0.6381173,1.3834034,1.0259202,1.2726361,1.5107092,0.7125303
-0.3401212,0.7039442,1.8043292,-1.1521968,0.2708662,1.5350676,1.1769840,-1.1939987,-0.3608687,-1.7894517,1.1141355,0.0879924,0.5655832,1.2346551,-0.0841638,0.6142840,1.1108174,0.4740818,0.8904675,0.9727364,0.4472078
-0.2144472,0.1974093,1.3530049,-1.1542357,0.3149856,1.4004914,1.3960787,-1.4776359,-0.3418270,-1.9934305,1.2185346,0.8712186,0.8523059,1.1267155,-0.2607828,0.9179958,1.1367308,0.3600422,0.5884566,1.0377729,0.0955652
-0.3123819,0.0342783,1.1034275,-1.0302694,0.3476404,0.4850455,1.3533039,-1.0624360,-0.0896803,-1.2229501,1.4514903,0.6874189,0.2854959,1.0334475,0.0162424,0.5517523,1.3206348,0.5370171,0.4226194,1.1888219,0.2200082
-0.5715995,0.0670969,0.7210996,-0.6750175,0.5136026,0.7669944,1.1573504,-0.7672574,-0.3945557,-1.0055094,1.5711722,0.0754110,0.3548590,0.9529462,0.4629627,0.6327490,1.5371568,0.7877228,0.5175581,1.0108343,0.2209261
-0.3336692,-0.0409851,1.0752352,-0.7692504,0.6096799,0.7692484,1.2215513,-0.2138215,-0.5544450,-1.0072213,2.0039792,1.0565522,0.6732970,0.9274160,0.4747102,0.7793975,1.7124642,0.8412923,0.7193087,1.3301156,0.5503362
-0.4201648,0.1679440,1.0264214,-1.0644356,0.4271473,0.6178470,1.5718913,-0.9582422,-0.9628090,-1.5817690,1.9870740,1.4310271,0.4165230,1.1677405,-0.0556010,0.8829590,1.6964903,1.0495096,0.8180687,1.0524937,0.7566646
-0.7338176,0.0659784,0.5802879,-1.5328091,0.3619599,0.7972621,1.3441428,-1.4636601,-1.1812220,-1.8656118,1.7100298,0.6454180,0.3064144,1.1565574,-0.6348656,0.3476228,1.5351139,0.9976693,0.3708403,1.0225724,0.3337958
-0.7192734,0.0084966,0.8233021,-1.7327377,0.2134666,1.0970300,1.3984398,-1.7342448,-1.2403115,-1.7344092,1.3621310,0.5283557,0.2110370,1.2211571,-0.8392757,0.0643084,1.4257761,0.8788564,-0.0218415,0.8267270,0.5666281
-0.6276452,-0.0235126,0.8627288,-1.4582983,0.5024289,1.0489197,1.1839024,-1.9565003,-0.9925447,-1.4151169,1.3511144,1.4674482,0.9713869,1.2196208,-0.2682476,0.2029571,1.3894130,1.3231471,0.2753930,1.0786259,0.8909605
-0.4765880,0.0398739,0.9519506,-1.2129421,0.0702128,0.8229160,1.1255064,-1.4887648,-0.9191818,-2.1334553,0.6412237,1.1616294,1.1633999,1.2634420,-0.0033887,0.3076279,1.8858882,1.5642458,0.6450534,1.4987905,0.8219224
-0.4695359,0.0679604,0.7369443,-0.6964127,0.3418884,1.0826457,1.1423748,-0.6292034,0.0137853,-0.7624249,1.4390454,1.0675285,0.8908354,1.4713573,0.3199624,0.6408623,2.0579259,1.7746321,0.7569226,2.1536503,0.9638775
-0.5904702,-0.1001316,0.8105448,-0.3484571,0.4254661,0.6686453,1.0535749,-0.8083423,0.3145137,-0.6255808,1.4361519,1.1295228,0.8799790,1.4623363,0.2353250,0.5531307,1.8949072,1.7795841,0.8118356,2.3796186,1.1502119
-0.5887991,0.0370519,0.7397165,-0.3745408,0.3576347,0.5092359,1.1036276,-0.4275329,-0.0838036,-0.2858565,1.5253009,1.4487683,0.8129855,1.2002593,0.2835467,1.2136186,2.2507806,1.7080817,1.1246972,2.4608309,1.6679846
-0.3440202,0.1348349,0.5480076,-1.1642970,0.1231991,0.9371324,1.2021927,-0.4281808,-0.3296975,-0.5713232,1.3339732,0.9772744,1.4351263,1.2530835,0.2227038,0.9637702,2.0931017,1.5246824,1.3525156,2.1323304,1.3666779
-0.4106809,0.1372478,0.7493090,-1.4239447,0.1012104,0.5615538,1.1586181,-1.2635123,-0.8933921,-0.9122669,1.0731056,1.1650659,1.2727855,1.2210990,0.0570943,0.9510772,1.7861810,1.4317629,1.2677104,2.0384884,1.3278909
-0.3259130,0.4329457,1.3883137,-0.3477622,-0.1060034,0.9768278,1.6065317,-0.7532254,-0.2340654,-1.2372918,1.0577815,1.2524478,1.2008175,1.4200011,0.5953253,0.9439687,1.8622664,1.7272257,1.5649050,1.9371190,1.0806156
-0.1730302,0.6363931,1.7931770,0.2806026,0.2532631,1.1891890,1.8429184,-0.0448146,0.0634883,-1.1613560,0.5777719,0.5472655,1.1884873,1.6967967,1.0776986,0.4791311,1.4107534,1.7440584,1.6518931,1.6422205,1.0365984
0.0779804,1.1467729,2.1648989,0.0990759,0.5700275,0.8298772,1.9120064,0.2194728,0.7410027,-1.0552551,-0.0284882,0.2933192,1.2270619,1.5045153,0.8820218,0.4139536,1.4366297,1.8686010,1.3285773,1.6700139,1.2021627
0.3619607,1.2232417,2.1452148,0.5490477,0.9623905,1.1480503,2.0830040,0.6149523,1.0854908,-0.6189532,-0.1681264,0.6951376,1.3295380,1.9116808,0.8144995,0.6578979,1.6990126,2.1563900,1.0652626,1.7462058,1.0448763
0.2614646,1.1014062,2.0440369,0.6785834,0.6477224,1.0085944,1.9472570,1.0390850,1.4428818,-0.2351531,0.4132565,0.3579245,1.6117691,2.0550568,1.0594262,0.8102758,1.6868955,2.0386832,1.4397457,1.7678512,1.2280657
0.2858756,0.9305761,1.5097494,-0.1573734,0.4883001,0.6092462,1.8173287,0.8330656,1.1034814,-0.7332981,1.2276238,0.3571868,1.8234223,1.7569934,0.5322913,0.9921193,1.9912587,1.6655846,1.3005674,1.7937961,0.6861684
-0.0041407,0.9070748,1.5792376,-0.5474628,0.2837470,0.6788214,1.8622410,-0.0821506,0.8108173,-1.1518114,1.1176089,1.4378134,1.9940321,1.7310686,0.4379978,0.5571659,2.1601043,1.9764024,0.5866188,1.9040754,1.0167645
-0.0008495,1.3458675,1.9863133,-0.7813944,-0.0511273,1.1777546,1.7463433,-0.5146295,0.9310464,-0.8094602,0.7186903,1.1926503,1.8844794,1.6200536,0.3827958,0.7480278,2.1838806,1.6204867,0.9448318,1.8411568,1.4949113
0.0405208,1.3728952,2.1110058,-0.6290258,0.0755287,0.9421610,1.7716120,-0.8312147,0.8568107,-0.7718415,0.5030339,1.1643012,2.1157310,1.4118088,0.7075249,0.5588464,1.9375479,1.8114791,0.9445286,1.9846509,1.3674021
-0.1574491,0.8941029,2.2134054,-0.5609224,0.4293638,1.0439111,1.8405718,-0.9540108,0.5522712,-1.1573414,0.2030613,1.2579150,1.6556686,1.6825889,0.3160135,0.6531869,1.2747300,1.4612901,0.9795849,1.8721365,1.1357442
0.1073472,0.7215768,2.3673692,-0.8572030,0.7822677,0.6532163,1.8301948,-0.5084708,-0.0115430,-1.5602332,0.1066869,1.5305983,1.7728783,1.6206553,0.2427268,0.5032457,1.2456559,1.7531381,1.0964624,1.2563885,1.4912852
0.0952014,1.3091547,2.3325551,-0.4576241,0.6473769,1.4473211,2.0608339,-0.7095336,0.3735822,-1.1140401,0.8628740,1.1858017,1.5943193,1.6941799,0.7248614,0.7401872,1.7436821,1.9587204,1.3297838,1.4521606,1.5806748
-0.4858359,1.1874917,2.2759669,-0.4214135,0.1037968,1.5176342,1.8575914,-0.6338493,0.4705931,-0.3160136,1.3698593,1.4630622,1.7859333,1.9375705,0.9589370,0.9069785,1.8777418,2.1676753,1.5993426,1.9276062,1.6002057
-0.6262625,0.1153597,2.0093439,-0.2421895,-0.0016295,1.2840668,1.8364648,-0.4435749,0.3234630,-0.6385968,1.1630228,2.3503857,2.0421991,2.0473349,1.0312544,1.0090195,2.1272893,2.0492058,1.2593561,2.2382379,1.9370171
-0.1414544,0.6742930,1.7514601,0.3513007,0.7074388,1.2797509,2.2523530,0.2010142,1.2414346,-0.5614725,1.4081528,2.2090120,2.1045306,1.8089032,1.5209181,1.3862077,1.9230870,2.3017657,1.5290105,2.1089511,2.5306070
-0.2283211,1.1842207,1.8847288,0.1397514,0.6117691,1.6541449,2.2224715,0.8734187,1.2558304,-0.2121727,2.1342537,1.6032094,2.2847393,2.0722620,1.5521693,1.1749078,2.0491297,2.6316149,1.7455002,2.6018214,2.3840835
-0.3058701,0.2912940,2.0483158,-0.0439398,0.3880554,1.4775873,2.4050508,0.5726232,0.1799733,0.0082213,0.9639044,1.9160773,2.3569379,2.3154333,1.2451164,0.8916507,1.9675947,2.3780990,1.8123639,2.1515167,2.1787715
-0.2013620,0.8418995,2.1259968,0.4059056,0.7816704,1.1668065,2.5761218,0.4342546,0.0587454,-0.5903728,0.4114179,1.3795885,1.7699142,2.2146344,1.1035916,0.6189901,1.6150529,2.0410640,1.6686922,1.8222998,1.5478983
-0.0698400,1.3204451,2.0352924,0.2991109,0.4964074,1.3143276,2.2359660,0.7897708,0.2833370,-0.9802418,1.1545386,0.6696397,1.7244937,2.1563673,1.0497241,0.4219290,1.3133491,1.8599203,1.0617915,1.3465184,1.1317096
0.3378302,0.5627090,1.9383999,0.3057477,0.6920947,0.9990088,2.1358843,0.2282103,0.5034387,-0.5212300,0.9022852,1.2401365,1.2202790,1.7357348,0.9645224,0.5426109,1.0734340,1.8009641,0.8434041,1.2700837,0.6278452
0.4036352,0.8357277,2.1007295,0.3608075,0.7458816,1.0786102,1.9374822,0.0987103,0.2793001,-0.1943383,0.7906504,1.3385081,1.4715021,1.5053010,0.7383420,0.2575680,0.8889331,1.4768841,0.6526092,0.9801589,0.5221173
0.1901293,1.5650934,1.7881815,0.2975049,0.9276382,0.9173993,1.4667028,0.3471432,0.3857237,-0.6592512,0.6543838,0.6953451,1.2620047,1.4092749,1.0715814,0.5665948,0.5687900,1.5556139,0.1172897,0.8982262,0.3299447
0.1379119,1.7516276,1.6279701,0.3389836,1.1635799,0.7047649,1.8030078,0.2882246,0.1914265,-0.4184094,0.3974783,0.9492753,1.6343809,1.4040014,0.8871309,0.8906167,0.7774965,1.7346021,0.5104387,1.1521593,0.4681011
0.2326827,1.6453527,1.9413575,0.6981744,1.0138471,0.8088721,2.2989547,0.0744639,0.0181854,-0.4127079,0.3466143,1.2714497,1.5776160,1.7090437,0.7642438,0.5451763,1.1039859,1.7341882,0.3181694,1.1762121,0.6433908
-0.1096104,1.3401172,1.5947520,0.7905651,0.7230285,0.4301932,1.9334345,0.7737576,0.0491507,-0.6986005,0.8112176,0.5491812,1.5511444,1.6267569,1.2312469,0.5145636,1.1141826,1.4533181,0.5513641,1.0836881,0.5066534
-0.1517787,1.4645993,1.5063111,0.0327343,0.9131610,0.2715417,1.4600281,0.7055833,-0.0720599,-0.7127362,0.3446229,0.3610325,1.3899552,1.3482637,0.8354793,0.0636216,0.8636500,0.8199576,0.6236951,1.0060215,0.1747625
-0.6086800,1.2434621,0.7638320,-0.5795946,0.2326277,0.1175159,0.8967959,-0.1949021,-0.6194795,-0.7533330,0.5824108,0.7082177,0.6549784,1.1270962,0.2615930,-0.4345664,0.4804245,0.4605209,-0.1696896,1.0099293,-0.0634913
-1.0410894,0.5458712,0.7637823,-0.9258011,-0.4666277,0.1586508,0.6075758,-0.9044901,-1.8359995,-1.7662038,0.3147052,0.2682878,0.3066849,0.7992299,-0.5643807,-0.9175881,0.4455875,0.2223017,-0.7769030,0.4107990,-0.0981887
-1.2411660,0.7455165,0.7907883,-1.1624342,-0.3712139,0.0791441,0.9893063,-1.1281178,-2.0261953,-1.3941454,0.5535700,0.3442365,0.1866685,0.7712157,-0.6401855,-0.7697003,0.3676092,0.5864271,-1.0946957,0.6046418,-0.0648888
-1.7465975,0.3317434,0.8923792,-1.5263686,-0.0240227,-0.3399703,0.8161160,-1.5618299,-2.5411358,-1.3612326,0.5517270,0.6341812,0.1283068,0.8638231,-0.7781461,-0.7199261,0.5727783,0.6677341,-1.0018939,0.1431554,0.0409606
-1.7179216,-0.0122475,0.9911322,-1.5128660,-0.6227222,0.1253100,0.6992044,-2.2089508,-2.4295101,-1.5722606,0.2762956,1.0594473,-0.1477683,0.8423835,-0.6728950,-1.1711619,0.4010617,1.0870215,-1.2509615,0.4043724,0.5849468
-1.2591214,0.7131206,0.7725809,-1.5072570,-0.8548348,0.5631730,0.7932528,-1.8015186,-2.2713313,-1.8532150,0.0549988,0.5941733,0.2613775,1.2366085,-0.5174636,-0.9971356,0.4737128,1.4823685,-0.7729355,0.7757962,0.8789298
-0.9041932,0.4704699,1.2201111,-1.5015689,-0.1581218,0.4858372,1.4235655,-1.2771703,-1.6471808,-1.1222992,0.6860435,0.9731826,0.8241158,1.4413019,-0.5579793,-0.6511949,0.7601416,1.3374565,-0.5692514,0.6377660,0.7953871
-0.8750903,0.3163719,1.5324807,-1.0938888,-0.1446756,-0.2108299,1.5186360,-1.2409275,-1.1315812,-1.0826200,0.9065439,1.5118098,0.7466241,1.5064069,-0.2751428,-0.2020441,0.9675460,1.5735554,-0.4954774,0.9552777,0.9679106
-0.4425149,0.7221345,1.2769039,-0.4960263,0.0795147,0.2376372,1.3527558,-0.2519149,-0.8859716,-0.3397418,0.9957865,1.0483475,0.5768625,1.6620686,0.4624142,0.1496164,1.1563179,1.7052529,0.4383952,0.9488871,0.9982362
-0.3559712,0.8145757,1.1082900,-0.2404726,0.7072060,0.7421846,1.4749494,0.0998365,-0.1864194,-0.0608233,0.8937683,1.0128734,0.7484069,1.6291516,1.0978249,0.0129838,1.3254266,1.3272653,0.6277387,1.1163630,0.8393462
-0.2957221,0.7638208,1.2984474,0.2538753,1.1508458,0.7712678,1.4167886,-0.0794016,0.6250038,0.0390315,0.2337904,1.2566984,1.2558984,1.7629987,1.0875492,0.2434820,1.4159284,1.1417290,0.4307336,0.9420772,0.5251858
0.0253762,0.7560612,1.3612275,0.8934848,0.9862807,0.2643140,1.3987432,0.4937729,0.1829324,-0.1540565,0.4129061,1.2596420,0.7819868,1.4718014,1.1917083,0.4248447,1.2375551,1.0319529,0.4631676,0.8191987,0.3893948
0.2716204,0.8058457,1.8661281,0.6937657,0.8849114,0.7807088,1.2348495,0.8073164,0.7109179,-0.2926269,0.7495029,0.6119124,0.3804372,1.4497437,1.4265769,0.7401499,1.3115449,0.7405357,0.6532578,0.9756848,0.2352381
0.2675009,0.7692719,1.6241795,0.4608034,0.9993795,1.0157844,1.5039802,0.4975173,0.7229295,-0.5519996,0.5129858,1.4497849,0.7555018,1.4143358,1.5040215,0.3380953,1.1878238,0.9088310,0.4623766,0.8156307,0.4179815
0.1755230,1.1913946,1.7914373,0.1883353,0.7805255,0.8644294,1.3822163,0.6600413,0.2177702,0.2887953,0.6542683,1.4761618,0.9410250,1.5583725,1.3627716,0.2797808,1.2250386,1.0772378,0.3647423,0.8881647,0.3458155
-0.1764818,1.4182405,1.8968803,0.0606371,0.4272098,1.0470388,1.3754543,0.6961768,0.2825790,-0.8429323,0.6262503,1.0802587,1.0985467,1.6116860,0.8765374,0.3097416,1.0888544,1.0704714,-0.0279514,0.6658036,0.3675598
-0.2944547,0.6893744,1.4745700,-0.5366566,0.2082008,0.5754762,0.9454939,0.2717746,-0.3505592,-0.5589529,0.7546790,0.6067124,0.5110254,1.2321702,0.3823006,0.2311729,0.9331145,0.7086555,-0.5479427,0.6170498,-0.1005570
-0.3195605,0.8385170,1.3516301,-0.4887106,0.1281031,0.4890194,0.8683605,-0.0467233,-0.3063050,-0.1471325,0.2523867,0.4678766,0.2227026,0.9941310,-0.0280656,-0.1363015,0.5593111,0.3598611,-0.4504779,0.5272124,-0.1943041
-0.3637305,1.1383488,1.3598138,-0.5981708,0.4188879,0.5879528,0.2519378,-0.3159156,-0.9161483,-0.4578030,0.2974239,0.2204977,0.0613061,0.9145912,-0.3065176,-0.2245694,0.5647178,0.1963758,-0.4271520,0.4842969,-0.2755548
-0.7374566,0.8130658,0.8929984,-1.0733175,0.1572522,0.5458665,0.0689727,-0.7120184,-1.3928082,-1.1263559,0.2171985,0.3870002,-0.0808969,0.4114563,-0.7789819,0.1628614,0.5490987,0.2618400,-0.1589083,0.5598108,-0.5735758
-1.1039838,0.1689008,0.6268098,-2.0544379,0.0956008,0.2909234,-0.1362325,-1.3682338,-1.7096664,-1.1785848,0.6356313,1.3391303,0.0264510,0.1439057,-0.7752799,-0.1211344,0.6785073,0.3219193,-0.4307641,0.5562900,-0.2796449
-1.5485530,0.2244371,0.6569988,-2.2382720,-0.1440159,0.2434858,-0.2491053,-1.4441642,-1.8582608,-0.8153262,0.4560795,0.6575233,-0.1847701,0.2093729,-0.5892707,-0.0420468,0.8002666,0.6338021,-0.2793227,0.5195928,0.2880100
-1.6267147,0.7662241,0.8917304,-2.5168207,0.1371889,0.2524259,0.1492517,-1.2110320,-2.2771614,-1.3586942,0.2540706,0.8072577,0.2990899,0.4572483,-0.5717004,-0.1572503,0.7475693,1.0132686,0.1071961,0.6665370,0.6721668
-1.1540339,0.7829745,1.2660018,-1.9325488,-0.1269553,0.8003927,0.2374533,-1.2311022,-1.8428316,-1.1924626,0.3895385,1.3482763,0.3091587,0.9930218,-0.1211108,0.1205996,0.9420950,1.2230846,0.0676846,0.9042552,0.7667193
-1.2072582,0.5971249,1.2080075,-0.9992672,0.0455812,0.5163442,0.5853763,-1.0839646,-1.7995999,-0.9736792,0.7259507,1.5173632,0.4406357,1.4109885,0.0025145,0.3008583,1.3040147,1.5441103,0.5505062,1.6123050,1.0240936
-0.7949385,0.9147887,0.8767738,-0.3046702,0.4761375,0.4355530,1.0714539,0.3128363,0.0820104,-0.2970740,0.9563804,1.3883320,0.9352204,1.2796032,0.7795194,1.2213186,1.8310434,2.2269878,1.0525365,1.8036414,1.4827557
-0.3036891,1.0590410,1.9145993,0.4649391,0.8456691,1.2297299,1.6853101,1.3624760,1.4244188,0.4055962,0.5003703,1.7190142,1.7593106,1.8475661,1.9227340,1.6243651,2.1050560,2.3581617,1.6956260,1.9317939,1.7401441
-0.1323190,0.7042742,2.2077131,0.5216348,0.5935765,1.5126581,1.7084883,1.6858882,1.6574531,0.8164548,0.8753924,2.1514516,2.0002444,1.9559051,1.7821567,1.6675988,1.9075204,2.3308773,1.8045802,2.4188235,2.2785795
-0.9882426,0.2602129,1.8525764,-0.4491928,0.0812974,1.2643248,1.6683251,0.6226844,0.9099840,0.3131732,1.1129279,2.2539749,1.9374315,2.0351851,1.5043299,1.5738546,2.3140211,2.2644422,1.3278857,2.4925859,1.8297832
-1.2854490,0.3662491,1.4675493,-0.6767151,0.1700910,1.0210955,1.0658284,0.4859855,0.6552930,0.1248960,0.9571282,1.9443760,1.7316592,1.4924501,0.7658532,0.8620023,1.9579915,1.3038502,1.0146494,1.5926272,0.9410919
-0.6461360,0.7801423,1.5228738,-0.3844762,0.1856773,0.4538512,0.7760522,0.0542706,0.2295769,0.3843418,0.9589975,1.1658628,0.8276705,0.9311385,0.2633245,0.5101950,0.7853761,0.7381206,0.2148273,0.5892591,0.0883818
-0.4113405,1.0383201,0.8159260,0.1204977,0.5126745,0.2403806,0.3114779,-0.1844158,-0.8878122,-0.0740984,1.0366542,0.6045366,0.2984577,0.6016726,-0.0456038,0.5127245,0.9015983,0.3023204,-0.4317823,0.1145639,-0.5573589
-0.1234530,1.0007776,0.3825647,0.2836418,0.8917773,0.0255793,-0.1339420,-0.3377603,-0.6790912,-0.7967127,0.1491735,-0.2751535,-0.2485211,0.1663333,-0.4310911,0.0511940,0.7973489,-0.0494633,-0.5471363,-0.1113976,-0.7776685
-0.0900877,0.5986890,-0.2909296,-0.1494887,0.9674577,-0.1516816,-0.4144344,-0.7066973,-0.8936438,-0.5465816,-0.1394147,0.0537705,-0.9184792,-0.0765480,-0.2255841,0.0743442,0.0856467,-0.3514740,-0.2619424,-0.3727544,-0.8746871
-0.3799857,-0.1600593,0.3450839,-0.4736655,-0.3346882,0.4054822,-0.5226295,-0.5873469,-0.9966449,-0.4388901,0.1123098,0.2584362,-0.6133863,-0.3384560,-0.3646320,-0.0606289,0.1474140,-0.4401309,-0.6495495,-0.1718632,-0.7414838
-0.3489602,0.5753632,0.3946826,-0.4413320,-0.0929417,0.4777304,-0.0549619,-0.3814595,-0.6862603,-0.5433934,0.1804677,-0.2135648,-0.3328992,-0.0103295,-0.1659913,0.4052257,0.6957577,-0.1575515,-0.4833271,0.0403108,-0.5354624
-0.3203234,0.5613258,0.3126840,-0.5865569,0.4521711,0.4712664,-0.1481910,-0.1469396,-0.2454875,-0.7106625,-0.1131159,-0.2870675,-0.5798103,0.1605549,-0.3467180,-0.1993181,0.3974030,-0.1413269,-0.6093345,-0.0677103,-0.2706689
-0.3395420,0.0879995,0.2706402,-0.6145754,0.3646507,0.1027911,-0.3378589,-0.2268962,-0.6548114,-0.6472083,-0.3657640,0.1978235,-0.8384309,-0.0954611,-0.3582564,-0.2256044,-0.0479887,-0.1487117,-0.9336011,-0.1379158,-0.2953420
-0.4403158,0.3513373,-0.0545698,-0.2555279,-0.0486094,-0.0513437,-0.1275598,-0.4356558,-0.7634990,-0.8565248,0.2341684,-0.1847804,-0.6255612,0.0136500,-0.1997889,-0.1989380,0.2935007,0.2935017,-0.8555138,-0.0118278,-0.2991888
-0.1464557,0.6450391,0.4610269,-0.1760517,-0.0777172,0.6259927,0.2696404,-0.7406385,-0.8696109,-1.7966795,0.1062724,-0.1241723,-0.2707285,0.4035120,0.0438083,-0.0308942,0.6232611,0.6793661,-0.7320964,0.1641544,0.3591521
0.2372455,0.5674494,1.4661267,0.0610721,-0.6596281,0.3866563,0.5309970,-1.0785612,-0.6911475,-1.7592877,-0.3753430,0.5538068,0.3879153,0.7182506,0.1743698,0.2996554,0.7759340,1.4317113,-0.6309256,0.4312646,0.9763412
0.3078564,0.8292421,1.2406716,0.2098648,-0.0672285,0.5862415,0.6664695,-0.8409429,-0.6970202,-1.0802110,0.4401246,0.7030967,0.6129078,0.8635303,0.4660163,0.7113117,1.1408625,1.5398897,-0.1226731,0.6882342,1.0480943
0.4292123,1.0827144,1.4362583,0.4539535,1.1527227,1.2862335,0.7933034,0.0346445,-0.1719569,-0.9139624,0.6494647,1.2952064,0.9938173,1.2612174,0.4186169,1.0710895,1.2426980,1.4199224,0.1264364,0.8864676,0.8695332
0.0520343,0.8743292,1.5657942,0.2641542,1.0318176,0.9127433,0.1833626,-0.3504831,0.0663758,-0.7805765,0.7423549,1.5974922,0.5761963,1.0149095,-0.2217443,0.7500075,1.0755762,1.0453271,-0.4419212,0.5579426,0.7692912
0.1538378,0.6376984,1.0947601,0.2638037,0.7751727,0.3146960,0.1841300,-0.4094482,0.2379544,-0.1189806,-0.2095538,1.1681730,0.1199346,0.6896126,0.0841047,0.2824100,0.6810542,0.7588473,-0.3896496,0.3679080,0.7982128
0.3518523,0.7424279,0.7324758,-0.2070084,1.2582287,-0.0600444,0.0211308,-0.2716078,-0.0400829,0.0768401,-0.5312829,0.0846305,-0.4849421,0.2383462,-0.0691467,0.5061876,0.1731517,0.6018919,-0.1902574,0.1428230,-0.1486184
0.4495168,1.2781606,1.2685778,-0.0055035,1.1702089,0.0900931,-0.0769239,-0.8327500,-0.5448169,-0.3521864,-0.6393781,-0.1553391,-0.8629084,0.1041591,-0.0153354,0.2421574,-0.4224029,-0.0598537,-0.5473337,-0.3888806,-0.6515201
0.5537050,1.4917290,1.0360237,0.2694737,0.6131677,0.0724905,-0.3152379,-0.9028326,-0.2447164,-0.5760272,-1.0041857,0.4387062,-1.2629783,0.1228341,-0.1878888,0.1373543,-0.5798899,-0.3214215,-0.6648338,-0.5089353,-0.9418741
0.6049886,1.3048289,0.7476089,0.5573361,0.7106037,-0.1456010,-0.7421442,-0.4947858,-0.3652343,-0.7768778,-1.1300182,-0.5310658,-1.1802012,-0.2541332,-0.3814203,0.0288109,-0.6194207,-0.5589846,-0.8482407,-0.6476634,-1.0453733
0.6087357,1.7390152,0.9466887,0.3767184,0.8072453,-0.1469364,-0.8976280,-0.7892538,-0.5894283,-1.0154748,-0.4368759,-0.5050996,-0.8503255,-0.4096091,-0.2530705,-0.0972823,-0.2971138,-0.1197371,-1.1596065,-0.0967613,-0.6113505
1.0378525,1.3202839,1.0230206,0.5592180,0.7515644,0.2766077,-0.5668088,-1.0507538,-0.6202043,-1.1766287,-0.2750761,0.4334582,-0.8730216,-0.2527782,-0.2157111,-0.0847431,-0.2563529,-0.2609351,-1.1454315,-0.1026918,-0.4346791
1.2658660,1.2442536,0.6398721,1.1095524,0.6434051,-0.3357070,-0.1308321,-0.1122667,0.6022404,-0.4484077,-0.0136456,0.3245624,-1.0585313,-0.3165701,0.2901048,0.6793037,0.2578062,0.0463363,-0.1222176,0.2876996,0.1897234
1.6871742,1.5029255,1.0689914,1.4435736,1.1428258,0.2961830,0.1371115,0.1699921,1.1841474,0.1751133,0.7892113,0.3881444,-0.4993498,-0.1623093,0.6864324,0.9240625,0.2768093,0.4606602,0.1560425,1.1806808,0.4559489
2.0510712,1.4853446,1.3966326,1.3697664,1.6069671,0.4875120,0.4103537,0.1043352,1.9503834,0.5369660,0.4135440,1.1269264,0.2719343,0.3015908,0.8487282,1.2016349,0.6122813,0.9372295,0.2259691,0.7731819,0.4045486
2.0628967,1.1100116,1.8900635,1.8449675,1.0979352,0.6180486,0.8913845,0.8687127,2.1402206,0.0009170,0.1763414,0.9540313,0.7463036,0.6506868,0.7866712,0.9577440,0.2923032,1.1027317,0.4996028,0.5825605,0.8771747
1.5585212,1.5799448,1.6216971,2.1691716,1.1022711,1.0614351,0.5769011,1.0259974,1.3590521,-0.1386209,0.4676543,0.1421193,0.6188020,0.6453305,0.5509205,0.7564667,0.3751901,0.9436429,0.4228077,0.5502747,0.8347301
1.5577773,1.6922628,1.5136844,1.2850775,0.9123757,0.9086398,0.1121205,0.7637075,1.3558667,-0.0917859,-0.2907161,0.1294910,0.1410717,0.3187864,0.7967023,0.2195243,-0.0014153,0.3791931,0.4870835,0.3497004,0.4539351
1.2871978,1.4958067,0.5872029,0.6837029,0.5660862,0.6518871,-0.2797596,-0.0963806,0.5456847,-0.4744062,-0.9906911,0.2514335,-0.5687702,0.1161637,0.0602257,-0.1342683,-0.3780235,0.0443283,0.1253572,-0.1690341,-0.2402202
0.7509922,1.5236899,-0.0481027,0.6043959,0.4785888,0.4989204,-0.7826732,-0.7116907,-0.1865235,-1.2334874,-1.1358906,-0.6829106,-1.2825112,-0.2254657,-0.3922132,-0.6733071,-0.3621948,0.2189493,-0.5665285,-0.5953712,-0.5094172
0.3286835,1.4870467,0.0802232,0.3432517,0.4464080,0.7237180,-0.7679905,-1.2935177,-0.7645065,-1.6098380,-1.2043656,-0.6325505,-0.8392845,-0.2325353,-0.5456927,-0.8861507,-0.2843221,0.2943408,-0.6239893,-0.4349986,-0.0750365
0.5302375,1.3412920,1.0660332,0.7149606,0.1902843,0.9987990,-0.0156525,-1.4548453,-0.5516554,-1.1271005,-0.9756528,0.0729030,-0.3726164,0.2951448,-0.6172492,-0.8321595,-0.0152579,0.5643798,-0.8566403,-0.2685917,0.0949782
0.8285012,1.4913784,0.8152010,0.6417810,0.2802792,0.8109829,-0.0561994,-1.3580966,-0.6284307,-1.6763668,-0.6700952,0.4978938,-0.4179637,0.2442111,-0.5068948,-0.5453115,-0.0798465,0.4732516,-0.5299724,-0.1100282,-0.0741346
0.9549338,1.4395952,0.8559211,0.4694071,0.6903544,1.0397711,0.1335253,-0.9339443,-0.5240021,-1.6927661,0.0127839,0.3348855,0.0696678,0.1436347,-0.5581636,-0.2323784,0.4698274,0.5120608,-0.4803906,0.0563068,0.2709044
0.9809510,1.3249725,1.3375263,0.3252659,0.9337152,1.5080495,0.3333646,-0.7012416,-0.0754952,-0.1950365,0.3437805,0.4667793,0.2664652,0.2989878,-0.3614532,0.0273036,0.1282194,0.7799038,-0.2672574,0.4352099,0.5360407
0.9454538,1.3222958,1.2539815,0.0025378,1.0467510,1.1666340,0.1837318,-0.1374972,-0.3815069,-0.2199115,-0.0025741,0.5296633,-0.2842405,0.3172682,0.1108852,0.2907106,-0.1097032,0.6094521,-0.1874831,-0.0177611,0.4278980
0.9382792,1.3853859,1.3634025,0.4527836,1.0539289,0.7704957,-0.0814975,-0.2308294,-0.1866225,-0.7964680,0.0196857,0.3007885,-0.5888726,0.0884435,0.1327408,0.2031933,-0.0095652,0.2277374,-0.3073482,-0.0785380,-0.0245834
0.7972100,1.6401597,0.6654649,0.3879695,0.9761311,0.4756238,-0.4410345,-0.4792321,-0.2694129,-0.8301762,-0.0193353,0.3871643,-0.3290754,-0.0306763,-0.1508378,0.2164194,0.0951359,-0.1139397,-0.5127030,-0.2908952,-0.3639657
0.4754929,0.9507842,0.6048571,0.4798103,1.2064583,0.3145870,-0.4784437,-0.5795975,-0.6594247,-0.7541483,-0.0304647,0.7029643,-0.3634063,-0.1966754,-0.2696156,0.0309472,0.1435972,-0.1384550,-0.6028591,0.0189708,-0.3727543
0.2922376,1.1425401,0.3566775,0.5136658,0.8900276,0.4991727,-0.5055161,-0.7221801,-0.2639299,-0.9990668,0.6657400,0.1219260,-0.5589795,-0.3412039,-0.3441249,-0.2895786,-0.0609633,-0.4698628,-0.5377311,-0.5330220,-0.4872887
0.5605075,0.6139925,0.3155359,0.2105604,0.3800799,-0.1020962,-0.6809255,-0.7491540,-0.1132680,-1.0734185,0.8226686,0.0665628,-1.1884087,-0.5489522,-0.4887868,-0.3185516,-0.3983466,-0.9293777,-0.8527986,-0.5973141,-1.0962089
0.4677453,0.3851475,-0.0030258,-0.1319778,0.6063858,0.0513483,-1.3106574,-1.0014623,-0.6847149,-0.9051512,0.5409012,0.0145027,-1.6752605,-0.6960968,-0.7450702,-0.3536045,-0.5967125,-1.0732039,-1.2260834,-0.8430871,-1.5035679
0.5279562,0.3210732,-0.4275310,0.2963933,1.0714201,0.2835495,-1.1787606,-0.4447010,-0.9964478,-0.8114321,0.6759532,-0.1122631,-1.9312212,-1.0592476,-0.6124973,-0.0486746,-0.2866501,-0.9940718,-1.2154057,-0.8234116,-1.2479991
0.5305275,0.4186034,-0.0440375,0.6095266,1.0979712,-0.3857307,-0.8817040,0.2671722,-1.0683101,-0.6821103,0.4962297,-0.0487622,-1.3457086,-0.6825243,-0.2718065,-0.1491615,-0.0460224,-0.7916888,-0.7526909,-0.4650477,-0.8863768
0.3053559,0.5886160,-0.1062727,0.9200413,0.6724797,-0.3822851,-0.6960607,-0.4652810,-0.7248528,-0.7308835,0.6553104,0.1514016,-1.5036356,-0.5447962,0.2822184,0.1118013,0.1385399,-0.6737584,-0.3317964,-0.1228958,-0.1631364
0.3811787,-0.0179097,0.0629807,1.2691736,0.9549788,-0.2225529,-0.6256313,-0.3298625,0.2791784,-0.4172383,0.1792999,-0.2706582,-0.6785035,-0.0935335,0.6251925,0.4926504,-0.1544749,-0.4547124,0.1272167,-0.1895006,0.1824346
0.4091728,0.5686632,0.1890427,1.5370952,1.1091673,0.0930262,-0.4504666,0.3501907,0.7889391,-1.0003231,0.6884115,-0.7227150,-0.8837360,-0.1169503,0.6032643,0.2450418,-0.0890864,0.0508203,0.3138789,0.0304504,0.1991619
0.5501490,0.8721652,0.5392360,1.4226686,1.2740622,0.0300025,-0.3857309,0.2698302,0.6883133,-0.9455488,0.2826317,-0.0525250,-0.6918454,0.0537982,0.8824886,0.7807125,0.1752472,0.1192918,0.1602433,-0.2899352,0.1754831
0.4944891,0.4392884,0.4337002,1.7195762,1.1492237,-0.5285312,-0.5824885,0.3955201,0.5874322,-1.0658656,0.0551604,0.1470181,-0.5139568,0.0279919,0.8597067,0.3667270,0.1947041,0.2225786,0.0965944,-0.2958092,0.2858439
0.8888617,0.4692608,0.2166469,2.1593089,0.7928568,-0.5768523,-0.8890364,1.0491827,1.2532501,-0.6892520,-0.2332401,-0.3552189,-0.8332626,-0.0729771,0.6882770,0.4978424,-0.4787633,0.2544649,0.2098415,-0.3078755,0.1715685
0.8697658,0.8780974,0.3470827,1.8765360,1.3074811,-0.0276623,-0.4517850,1.2062021,1.3544811,-0.3055809,0.2357689,-0.3848148,-0.6877740,-0.1280127,0.9516785,0.5793221,-0.1956672,0.4078152,0.3329821,-0.2619012,0.8032963
0.6689611,0.8955691,0.5832896,1.8634185,1.0954016,0.3870738,-0.0390487,0.6080563,0.8892590,-0.2505914,-0.5233594,0.2291971,-0.5855556,0.6399361,0.9419083,0.4506009,-0.0459158,0.5016380,0.1618236,-0.1126141,0.7654150
0.9295136,0.8437272,0.5004940,1.8955688,0.8213774,0.4620989,0.0285395,0.8089723,0.7495371,-0.8795182,-0.2575528,0.0872228,-0.7839888,0.4173289,1.1481445,0.8456535,-0.4563643,0.6666476,0.4401433,-0.0031707,0.4675827
0.9332240,1.3679982,1.0237147,1.8825102,1.4405255,0.6480667,0.1308617,1.0215336,1.5069563,-0.1792904,-0.2474993,-0.8712603,-0.5253046,0.4916043,0.8985597,0.6402327,-0.5644166,0.7455449,0.6231187,-0.0827089,0.3434708
1.0552020,1.3091924,1.0756183,1.2166950,1.1699557,0.7791477,0.1462150,1.0060927,0.9656928,0.0213590,-0.8644525,-0.1489521,-0.1746828,0.3916726,0.4100351,0.3125756,-0.4467561,0.4101989,-0.1175013,-0.4057493,0.1501240
0.7069920,0.8811625,1.2771109,1.0006273,0.8971443,0.9552661,0.2519862,0.3981673,0.1996278,-0.5930581,-0.7090818,-0.4536808,-0.3116694,0.3503675,0.2657700,-0.0129639,-0.3496601,0.5911461,-0.1020528,-0.3547864,0.1926916
0.6633458,1.0156580,0.6864551,1.2681278,0.6024532,0.6141238,-0.0291414,0.3141265,-0.1740254,-1.7868326,-1.5252389,-1.0568601,-0.6167280,0.2228209,0.0336173,-0.7558841,-0.6191442,0.5360476,-0.1685118,-0.4916748,0.0233873
0.5435532,0.8650171,0.9930432,1.1990603,0.9379586,0.4957840,0.0807732,0.0274908,-0.5927605,-1.1942966,-0.9678218,-0.5294657,-0.6960842,0.5393817,0.1579575,-0.2888090,-0.6738304,0.5883300,-0.4057336,-0.2488733,0.3102787
0.5703951,0.6929768,1.3881633,1.4680761,0.6870923,0.7699883,0.5995166,-0.2926151,-0.5246770,-0.8579672,-0.8938880,-0.0621266,-0.2167207,0.6605561,0.1352192,-0.1284282,0.2457100,0.6826613,-0.8834360,-0.2614691,0.0529047
0.5645631,1.2429615,1.1844083,1.6464845,0.3255910,1.4298460,0.5970000,0.2241569,0.2805621,-1.0601206,-0.9992833,-0.0020688,-0.1130147,0.5125674,0.4005916,0.1378853,0.7718780,1.0795872,0.3382044,0.0063962,0.4698207
0.8664759,1.3190525,1.4436353,1.2715379,0.7607905,1.5054051,0.3974240,0.7267016,0.5479704,-0.8514998,-0.5894969,0.4178838,0.5558154,0.5270882,0.4806317,0.3842347,0.0896886,0.4151359,0.5779344,-0.0977330,0.3346933
0.7442245,0.6206115,1.3206831,1.2284400,0.3373318,0.8861162,-0.1881092,0.1923337,0.3913096,-0.5340690,-0.5243100,0.5152338,-0.0884710,0.3748714,0.2251170,0.3515510,-0.3139122,0.0905944,0.3360617,-0.7779521,-0.1865405
0.6903364,0.6304501,0.6607247,1.3028249,0.1144988,0.8270459,-0.5396205,0.1314442,-0.1725641,-0.3916883,-0.2484238,0.1357107,-0.4663076,0.3172044,0.1769376,0.3349583,-0.6154074,0.2140149,-0.1468046,-0.6137090,-0.0797427
0.4582274,0.8099726,0.3558917,1.5148561,0.8757772,0.4707009,-0.4010100,0.3666112,0.0268254,0.0088816,-0.2213879,-0.3926200,-0.7342707,0.0338149,0.5966721,0.1313492,-0.5322459,0.2548311,-0.0536712,-0.2928669,0.1676413
0.7636548,0.6676868,0.4017220,1.2821993,1.2239373,0.7625680,-0.3537800,0.4477827,0.5606821,0.0761455,-0.7026914,-0.3876443,-0.3716982,0.1891797,0.8828304,0.4032030,-0.5477491,0.1801130,0.2057948,-0.6204184,0.2148995
1.1006562,1.1197313,0.5983120,1.1564678,0.4563738,0.3610598,-0.5867991,0.8933735,0.6267331,-0.4470316,-0.9886812,-0.2474140,-0.2306484,0.4261260,0.5389063,0.0723891,-0.5867600,0.1160001,-0.0514156,-0.6975320,0.0686766
0.6390426,1.0431032,0.5501229,0.9608776,1.0925938,0.7977958,-0.8473968,0.4631978,0.2825837,-0.3779554,-0.5854617,-0.6275188,-0.5463169,-0.0256172,0.4574459,-0.0046729,-0.6625355,-0.0086407,0.4675703,-0.3841648,0.1746190
0.1879752,1.3967152,0.3402794,1.1429209,0.4141074,0.3144878,-0.6155258,-0.1597298,0.1444890,-0.9101061,-0.1676598,-0.3221572,-0.5928916,-0.1834520,0.2733302,0.3372990,-0.7387403,-0.3133536,-0.4848919,-0.6266071,0.2069169
0.5999528,0.8148742,0.3465033,0.7804498,0.5619299,-0.2888466,-1.1231692,-0.2330987,0.0228881,-0.9684733,-0.2142149,-0.0495452,-0.5685955,-0.2606520,-0.2388394,0.2089753,-1.0358094,-0.5127710,-0.5356798,-0.2482672,-0.1348350
0.2801464,1.1261064,0.0856198,0.9544562,0.3132767,-0.8913852,-1.6394318,0.3627725,-0.7803394,-0.8225731,-0.5306152,-1.0846930,-1.7226909,-0.4875056,-0.2367911,0.1937984,-0.8423505,-0.6796439,-0.1929097,-0.4288695,-0.4173448
0.0752332,0.9422780,-0.2923165,1.0590392,0.4139415,-0.4447947,-1.6116300,0.0610269,-0.2613671,-0.8463861,-0.4090627,-0.6212393,-1.7146014,-0.4209396,-0.1379765,0.1622511,-0.5960256,-1.0182227,-0.2929305,-0.6056361,-0.5080684
-0.2216085,0.4619892,-0.2817186,0.5857799,0.4749717,-0.2692970,-1.2747418,-0.7320293,-0.8236975,-0.8029568,-0.6672944,0.0027767,-1.6890243,-0.4002062,-0.6143970,-0.3352180,-1.0986832,-0.6441129,-0.5816022,-0.5731609,-0.4350532
-0.0703555,0.6050365,-0.0045892,0.4224598,0.4024195,-0.3963597,-1.0032885,-0.4063467,-0.7986097,-1.1387858,-0.7392316,-0.3293747,-1.6009979,-0.5539712,-0.7393813,-0.5659221,-1.2302374,-0.7185217,-0.8052638,-0.8174356,-0.5214885
0.2107800,0.5592498,-0.5413024,0.7361930,0.4447571,-0.5085940,-1.1649939,0.1263456,-0.3322394,-1.5509794,-0.7765046,-0.9903318,-1.9328710,-0.7706844,-0.6531219,-0.8307779,-1.4029230,-1.2955045,-1.2667339,-0.9377909,-0.8091616
-0.1785148,0.5908032,-0.7355545,0.6629252,0.2468659,-0.3639841,-1.5172790,-0.4793692,-0.4656057,-1.6127309,-0.9125801,-0.8717648,-1.9198079,-1.0582306,-0.6486123,-0.7031898,-1.5004044,-1.2708958,-1.4982396,-1.3267992,-1.2011995
0.0319159,0.6505429,-0.3534997,0.6926343,0.1229719,-0.4541305,-1.6564741,-0.8519289,-1.2635154,-1.4223274,-1.6097929,-0.1693748,-2.0486400,-0.9958920,-1.0587496,-0.7238911,-2.0848024,-1.3067722,-1.5607933,-1.7476455,-1.5508865
0.3874665,0.8855999,-0.6353462,1.0677135,0.2458233,-0.9659382,-1.9633129,-0.6474732,-1.0677484,-1.6938974,-2.0652351,-1.5450220,-2.3790648,-1.4202306,-1.0024098,-1.2756022,-2.4008863,-1.7981509,-1.6399195,-2.3341770,-1.7705972
0.5315390,0.7362130,-1.2198075,0.8992972,0.5577349,-1.3779635,-2.5070155,-0.6844590,-0.9507721,-1.1658064,-1.5238680,-1.9563451,-2.4925530,-1.8503360,-0.7512888,-0.9795095,-2.0979946,-2.1394417,-1.9143528,-2.0206208,-1.8963916
0.5087881,0.7610841,-1.3651754,0.9648103,0.5546932,-1.2989420,-2.6982949,-0.7160803,-1.0876881,-0.7655929,-1.2723562,-1.0134575,-2.7802017,-1.9477599,-0.7082015,-0.7156716,-1.8703105,-2.1421986,-1.2662201,-2.2247910,-1.7417854
0.2115398,0.8429894,-1.2750087,0.9386637,-0.0236511,-1.0969235,-2.4775200,-0.0170349,-0.8419691,-1.1754020,-1.4883995,-1.5374856,-3.3076859,-2.0804350,-0.2817388,-0.7302609,-1.5336555,-1.7568431,-0.8071291,-1.6423497,-1.3671677
0.6529131,0.4972209,-1.2928585,0.7452722,0.2713293,-0.4653938,-2.3609128,0.2433634,-0.4981720,-1.1772411,-1.1656113,-1.6738709,-2.6174705,-1.8564775,-0.0115249,-0.4195850,-1.2061211,-1.7292091,-0.8323268,-1.2768297,-1.1338745
0.7759347,0.3663421,-1.2319797,0.8041146,-0.0371688,-0.6964123,-1.9952681,0.1635382,-0.7946225,-1.2078730,-0.9424086,-0.8270673,-2.1859946,-1.4645478,0.0976858,-0.5299220,-1.0419167,-1.2902659,-0.6035745,-1.0200497,-0.6345711
0.4350671,0.2823282,-0.7058352,0.8518192,-0.2917155,-1.0223354,-1.6675651,0.0485842,-0.3137714,-0.9156027,-0.9692439,-0.7839413,-1.9273793,-1.0541133,0.0908127,-0.2631547,-0.9013621,-1.0615801,-0.6134806,-0.9388952,-0.1024890
0.4339272,0.5290343,-1.0387443,0.8961904,0.3714696,-0.7334852,-1.6192695,-0.0258251,-0.7620648,-0.7468243,-1.1795470,-1.5019510,-1.7964752,-0.9956421,-0.0222690,-0.5149869,-1.1124166,-0.6531184,-0.5273529,-0.6883347,-0.2049594
0.6322190,0.5417858,-0.8768435,0.9768549,0.6259204,-0.4854876,-1.2772007,-0.4175870,-0.8308730,-0.5317152,-0.9717698,-0.8735813,-1.3256466,-0.4716388,-0.0668379,-0.1926646,-1.2834128,-0.4905090,-0.6163711,-0.6265530,-0.3329692
0.6972505,0.2417211,-0.5256013,0.9105736,0.6299376,-0.0629036,-1.0235053,-0.1515498,-0.4163275,-0.4792182,-1.1419278,-0.4347517,-1.2319376,-0.4201229,-0.1473018,0.2653272,-1.3545653,-0.2336414,-0.5465084,-0.5043122,-0.1125300
0.5244799,0.8569963,-0.1333452,0.5684853,0.7132257,0.2389250,-0.8276942,0.2327107,0.2525939,-0.5046264,-0.5147294,-0.3679287,-0.7378176,-0.5019349,0.2029205,0.2381858,-0.3300460,0.0847367,-0.1292724,0.1689668,0.2989334
0.3938102,0.6234421,0.1431435,0.2981353,0.5928957,0.7325414,-0.7325515,-0.5474847,0.1026943,0.2739067,-0.2682948,-0.0800466,-0.5138105,-0.4612350,0.2921902,0.5244280,-0.1403634,-0.3815600,-0.0044857,0.0868732,0.3593538
0.5120720,0.3348000,0.2531892,0.2371506,0.0347458,0.4711770,-0.5534574,-0.6131827,-0.0266846,0.2383856,-0.3782451,0.8527403,-0.3368360,-0.2626249,0.0239925,0.1697394,0.0892671,-0.1539295,-0.0769768,0.3126494,0.6958158
0.3796672,0.3977499,-0.0277474,0.4349483,-0.1097338,0.4246491,-0.8738630,0.0533347,-0.0337434,0.2223550,-0.2220089,0.5635265,-0.7297058,-0.2939616,0.0025021,0.3075536,0.2243642,0.3490305,-0.0481000,0.6253123,0.6852781
0.0920459,0.5095209,-0.2535401,0.1052033,-0.0403393,0.5102860,-1.0336123,-0.3210879,0.4348232,-0.0576591,0.7308242,0.3447939,-0.7478966,-0.2910116,-0.4861010,0.8271293,0.5710351,0.0849315,-0.2565405,0.8572698,0.8785912
-0.7604361,-0.3797745,0.1400558,-0.8268070,-0.3493652,0.8121986,-1.2023771,-0.9619021,-0.6161640,0.1284878,0.9169949,1.1919641,-0.3150377,-0.0253959,-0.4349763,0.3796492,0.7299995,-0.0943700,-0.6994289,0.9390935,0.7882408
-0.8575994,-0.5904301,-0.5887128,-0.4694932,-0.4013843,0.7296358,-1.1818529,-1.4524167,-1.5451232,-0.3406908,0.5796652,0.8763750,-0.3940297,-0.4326050,-0.2152573,0.6241065,0.3285515,-0.1546790,-0.0641838,0.4805176,0.6530537
-0.5035931,-0.1202994,-0.9573863,-0.1229163,0.2535338,0.5647452,-0.9964879,-1.2030669,-0.8168657,-0.2082920,0.2214070,0.0304524,-0.5365917,-0.5571052,0.2227407,0.7601559,-0.1127661,-0.1137886,0.3256470,0.4941047,0.8353270
-0.3454068,-0.3284839,-0.9664765,0.0239361,-0.2605420,0.4104354,-1.2161462,-0.4811193,0.1657363,0.1915209,-0.0006816,0.8862886,-0.0569184,-0.4046276,0.1574365,1.3500069,0.4120266,0.3337935,0.4566334,0.7249461,1.0714959
-0.4493696,-0.1109172,-0.6613296,-0.2026150,-0.5284106,0.5236510,-1.2267878,-0.5659669,-0.3003657,0.9803973,0.3627460,1.2219013,-0.3347570,-0.0975988,0.1614347,0.9878261,0.3367386,0.2284207,0.3016757,0.7968621,0.4720173
-0.5544942,-0.2366658,-0.9498543,-0.3464051,-0.5798869,0.0776342,-0.8010809,-0.9835619,-1.0394487,0.2350327,0.3257167,0.4095934,-0.6051352,-0.2075697,-0.0172060,0.6474977,0.3086361,0.3085297,0.2437963,0.2839944,0.3895147
-0.1651630,-0.3139898,-0.5223488,-0.2986140,-0.0539735,0.1532737,-0.8184160,-0.8638495,-0.3237969,0.4752705,0.7488683,0.9421042,-0.4897910,-0.2777992,-0.1978951,0.6194906,-0.2402903,-0.0916875,-0.0287965,0.4205825,0.0444279
-0.1837807,-0.2761426,-0.1841276,0.2289613,0.0150135,-0.0417236,-1.0434563,-0.9351085,-0.4075731,-0.0432165,0.0465269,0.5852226,-0.9330670,-0.2465317,-0.2485876,0.5360984,-0.5933439,-0.1277608,-0.4980426,-0.2329315,-0.2193415
-0.1823779,0.1501874,-0.6131854,0.5680444,0.0035210,-0.1322852,-0.7483225,-0.6468696,-0.5001490,-0.2769065,-0.4040350,-0.2071485,-1.0154542,-0.1316865,0.1774699,0.2562940,-0.3923727,-0.0207421,-0.3643840,-0.3898143,-0.3995222
0.5025324,0.4965324,-0.4502636,0.3039370,0.2964613,0.4099297,-0.5028483,-0.2202935,-0.1705635,-0.1387735,-0.2722751,-0.6408756,-0.6991812,-0.2208368,0.1487591,0.1847344,-0.6711969,0.0603989,-0.3510993,-0.4961392,-0.1517974
0.5227342,0.4436846,-0.0347346,0.4042657,-0.0902564,0.2482342,-0.6698063,-0.1969569,-0.0980343,-0.0433480,-0.1400474,-0.1211322,-0.5669755,-0.2751729,-0.0377073,-0.1717061,-0.8561824,0.0392467,-0.4718088,-0.5065119,-0.3574209
0.1301727,0.6231306,-0.5366561,0.1673306,-0.0495115,-0.0808677,-0.7526699,-0.3752523,-0.7303362,-0.6461166,-0.6083792,-0.0567256,-1.2915570,-0.4903909,-0.3124941,-0.2979081,-0.8718613,-0.2138997,-0.9913359,-0.7597461,-0.5704670
-0.0552709,0.3654846,-0.4404699,0.2569931,0.2800261,0.3391026,-0.9025723,-0.2795112,-0.2322975,0.0467711,-0.1708203,-1.4118394,-1.5454385,-0.8106670,-0.3848765,-0.0494920,-0.9260064,-0.9494286,-0.3753105,-0.4241030,-0.7295768
0.1378722,0.3711688,-0.3274499,0.5465242,0.6132585,0.1306834,-1.0470532,-0.5355617,-0.5791485,0.6161027,-0.0654162,-0.5564014,-1.7348738,-0.9975453,-0.5405089,0.1919803,-1.0635128,-1.1260134,-0.3651267,-0.5389912,-0.8678150
0.0742652,0.3768924,-0.8157621,0.4210793,0.3843232,-0.3660768,-0.9378584,-0.8795790,-0.7208688,0.6332918,0.1936846,-0.0096669,-1.9190335,-0.9350287,-0.4899757,0.2879331,-1.1184635,-0.9558674,-0.1998990,-0.8388065,-1.2664748
0.0115109,0.1397261,-0.7579733,0.5268196,0.4537152,-0.6777064,-1.1664134,-0.8779795,-0.7166702,0.4981208,0.3569995,-0.9694732,-2.2221997,-0.9948865,-0.7061885,0.0376698,-0.7507927,-1.0287166,-0.1922162,-0.5656866,-1.4565178
0.1788168,0.1376691,-0.4068002,-0.0829202,-0.2599413,-0.0374630,-1.2577503,-1.0811272,-1.3064849,0.3536044,0.2033770,-0.8954733,-1.3391186,-0.8928164,-0.6407203,-0.1930978,-0.6059161,-0.8861303,-0.4622991,-0.6770059,-1.1225224
0.1885375,-0.0236813,-0.5862247,0.0096205,-0.2298125,0.0232533,-1.0726305,-0.8115718,-1.0929141,0.3570276,-0.0319484,-0.0467157,-1.0406599,-0.7322081,-0.5311737,-0.5458872,-0.3555654,-0.4682990,-0.0578782,-0.2715561,-0.8286904
0.2443255,-0.0630280,-0.6289837,0.0108049,0.2518723,0.2929878,-0.8441527,-0.2373673,-0.9105462,-0.0487851,0.1299111,0.0502034,-0.8088651,-0.4976781,-0.5509457,-0.4022393,-0.3060615,-0.0899437,0.1777328,-0.2348739,-0.4479754
0.2524984,0.0324271,-0.5042595,0.0201642,0.3822768,0.2256818,-0.7164134,-0.8117284,-0.7636680,-0.0896308,0.1139012,-0.2509823,-0.3988321,-0.2410467,-0.5098894,-0.3097862,-0.3983396,-0.1369661,-0.1603935,-0.7772920,-0.2662216
0.1685158,-0.2333856,-0.1673760,0.5487605,0.2354081,0.1279804,-0.6332633,-0.9471707,-0.8909201,-0.5108362,0.0653786,-0.2115447,-0.5007085,-0.0164709,-0.1483767,-0.0928827,-0.5814328,-0.1812723,-0.2503650,-0.8631910,-0.0918839
0.2527082,-0.6210357,-0.2681143,0.8183683,-0.2808794,-0.0296581,-0.3439717,-0.2498767,-1.1053603,-0.0537811,0.0787868,-0.3160673,-0.4527369,0.1014470,-0.1128783,0.0072402,-0.3492206,0.0452583,0.0827502,-0.6030083,-0.0416736
0.7384399,-0.1143905,-0.4693895,0.9740990,0.3211168,-0.1264938,-0.0966373,0.0277867,-0.0035743,0.3282778,0.1030591,-0.5738653,-0.5236841,0.0303437,0.1938645,0.0667901,-0.0526829,0.4662318,0.4118303,-0.5619917,0.2698204
1.0723548,-0.1083477,-0.7188828,1.3580236,0.8130816,-0.1874022,-0.4114992,-0.4107199,0.1526314,0.4522789,0.0830545,-0.2393359,-0.6865556,0.2241988,0.1842641,0.1298565,-0.6031380,0.6335452,0.4989463,-0.4472259,0.1479255
0.9906130,-0.3042517,-0.2464413,1.7478819,0.8606272,-0.7200659,-0.5925262,0.3871938,0.2794748,0.1126728,-0.5444808,-0.7781478,-0.9217227,0.2283183,0.6219245,0.2798281,-0.6280258,0.5061945,0.7070044,-0.4798807,0.0123640
0.7967392,0.3864255,-0.5635645,1.1819963,1.1703473,-0.4747100,-0.9413357,1.4154453,0.3377095,0.0452642,-0.4113509,-1.0751493,-1.2664691,0.0706832,0.8646154,0.2062479,-0.2965697,0.2494500,1.0775722,-0.4880620,-0.0118597
0.8057663,0.2427403,-0.5762669,1.3449882,0.7285607,-0.2057407,-0.6058816,1.1622705,0.4815719,0.5068144,-0.2249013,-0.9401141,-1.2826926,0.0615851,1.0098952,0.1401153,-0.4583093,0.3216018,1.3251834,-0.3107314,-0.0112664
0.4942250,0.6598256,-0.2219091,1.4894639,1.0124571,-0.0186234,-0.1234436,0.4748302,0.3345243,0.5866660,-0.0169594,-0.5295852,-0.5938113,0.2897024,0.9856561,0.0271642,-0.5968341,0.1893259,0.9749340,-0.1332689,-0.1680039
0.4307487,0.2712561,0.0067455,1.2618792,0.6906907,0.2672745,-0.4094979,0.3065135,-0.3268973,0.2104924,0.2049561,-0.0939813,-0.7760571,0.2421388,0.5453351,0.0993211,-0.0466547,0.2132913,1.1498108,-0.1476261,-0.0859939
0.4186146,0.2303680,0.2874243,1.1766198,0.6071768,0.6556886,-0.3888552,0.5526632,-0.2049224,0.1693663,0.5958464,-0.0576151,-0.9958423,0.0887208,0.5115648,0.3830830,0.0249408,0.4166248,1.2540538,0.3896060,-0.3983029
0.3162375,-0.0400103,0.3373013,1.2924269,0.2901075,0.2968116,-0.4001962,0.1755219,0.3421783,0.8019976,0.6647914,0.4989980,-0.7441511,0.1212309,0.6858231,0.5677674,-0.3734144,0.2213254,1.3324395,0.5502188,-0.0568629
0.4429193,-0.1119774,-0.3295954,0.9977731,0.5235392,-0.0213054,-0.4101268,0.2044333,0.7417867,0.6340647,0.6720499,-0.0714034,-0.9271832,-0.1647525,0.5036593,0.3112096,0.0764264,0.0473332,1.1744280,0.4938368,-0.0006935
0.4482852,-0.0966624,-0.1748958,0.4286005,0.7221028,0.2694179,-0.8345956,0.3000326,0.1911872,0.5353943,0.2252507,-0.5156384,-1.2505716,-0.3023147,0.0990768,0.6163334,0.4829777,-0.1434759,1.1907964,0.1682111,-0.4023063
0.2732449,-0.1890396,-0.7424797,0.4199887,0.6068180,-0.2386116,-1.3537538,0.2850580,-0.0603491,0.9876202,0.3303818,0.0338026,-1.1571144,-0.0133474,-0.2195074,0.5149921,0.2423829,-0.0867596,0.8660606,0.5958235,-0.1894373
0.0777636,-0.2523513,-0.9182630,0.2501546,0.7230417,-0.2310944,-1.2684075,0.0701768,-0.1396009,0.7542213,-0.0762481,-0.3872226,-1.1247947,-0.2854153,-0.1203164,0.4802313,0.2212694,-0.4126900,0.4238912,0.4802205,-0.1152390
-0.1847836,-0.0117883,-0.8480028,-0.1532214,0.4840834,-0.0929694,-0.9825470,-0.0602569,-0.4333588,0.8717177,0.6888683,-0.3153419,-1.0091670,-0.4708869,0.1425205,0.1310026,-0.0877690,-0.1786094,0.2563701,0.1497977,-0.2909482
0.1073862,-0.1155074,-0.8172510,0.1770122,1.0575172,0.1749490,-0.7874822,-0.4814053,-0.2888079,0.7113554,0.9101124,0.0353085,-0.8730207,-0.2816660,0.0011193,0.9349504,-0.0789940,-0.5611520,0.4603555,0.1876367,-0.2361712
0.1169587,-0.0167309,-0.3783892,0.2974427,0.3450838,0.4938501,-0.7530630,-0.3660616,-1.2010717,0.6173739,0.4303474,0.4588416,-1.1351353,-0.4231875,-0.3755856,0.6839922,-0.0977364,-0.6458610,0.0854637,0.2770435,0.1059474
0.0181210,0.1991037,0.1952893,0.6846691,0.0132203,0.7760685,-0.4024370,-0.0085252,-0.3974716,0.4252815,0.3670051,0.0638029,-0.8347986,-0.3216012,0.2176609,0.2992489,0.3501721,-0.4132737,0.1939186,0.2298026,-0.1032016
0.3728761,0.3643246,-0.0503015,1.1496484,0.7942608,0.5351670,-0.6911051,0.0214633,0.0354648,0.0463008,-0.0620784,-0.2360880,-0.9902260,-0.4602978,0.4495435,0.4135346,-0.0971979,-0.5647541,0.0643129,0.1085787,-0.6601880
0.4960246,0.2263542,-0.5153140,1.0561762,0.7803741,0.2881124,-1.0701871,-0.0358637,-0.3535857,0.1574599,-0.0095318,0.2605057,-1.7223417,-0.5342849,0.6167643,0.6571588,-0.6882808,-0.4696069,0.1330907,-0.0499170,-0.6918027
0.9764606,0.4159255,-0.5542804,1.8129312,1.1623151,-0.0812086,-0.6935546,0.8911235,0.3363312,0.7417322,-0.3484606,-0.2125441,-1.7391043,-0.4236067,0.9481658,0.4741700,-0.6210379,-0.2644475,0.3164434,0.0569982,-0.0957387
1.0720475,0.6158159,-0.7535884,1.6643050,1.5782881,0.3820201,-0.6145305,1.5919564,0.9860820,1.6253837,-0.3002806,-0.7666616,-1.5849150,-0.5621278,0.8816503,0.8321154,-0.3304183,-0.3430639,0.4038552,0.1697230,0.0141981
0.5065227,0.6713474,-0.5966603,1.1702143,1.6400403,0.9320542,-1.0523269,0.8013142,1.0841591,1.6171557,-0.4831620,-0.2166436,-1.4576359,-0.6049483,0.1559699,0.5469146,-0.5671978,-0.4714265,-0.0787011,0.0744058,-0.7421488
0.2244411,0.7975193,-0.2981599,0.8086995,0.7631869,0.5746971,-0.7345284,0.5271801,-0.2292895,0.7462448,-0.4857215,-0.2668256,-1.6641754,-0.5575246,-0.2624259,-0.3263468,-0.8423483,-0.5782230,-0.5868543,-0.7362832,-0.9881885
-0.0706738,0.5384786,-0.7674909,0.2972846,0.3499823,0.2940866,-0.5843075,-0.0066537,-0.7842614,-0.4016265,-0.1798264,-0.5379838,-1.5896556,-1.0104735,-0.2561322,-0.0225853,-0.5888272,-0.5569755,-0.5331141,-0.7872982,-0.7044534
-0.0408554,0.0699929,-0.4756218,0.3621428,0.1298898,0.9043704,-0.9593548,-0.5204274,-0.4398933,-0.3352862,0.3181748,-0.4564582,-1.6082200,-0.9122702,-0.6210130,0.2882631,-0.4763563,-0.7558276,-0.4962150,-0.2602304,-0.6720963
-0.1033829,0.1791033,-0.7880546,0.8348808,0.4870948,0.9329494,-0.6012872,-0.6136262,-0.4253612,0.1700999,0.0374674,0.2720067,-1.3475676,-0.6513273,-0.3095780,0.5782749,-0.4720197,-0.4808827,-0.0520386,-0.1195469,-0.5883982
0.5008171,0.4674337,-0.6922472,1.2396168,0.6403722,1.1332146,-0.8150785,-0.1936122,-0.7239792,0.8304653,0.5390804,0.2341902,-1.6793971,-0.8320333,-0.2124609,0.2951294,-0.3477023,-0.5310236,0.1895739,0.2939163,-0.5582977
0.4912421,0.6797705,-0.5447691,0.8065712,0.7468099,1.8456699,-0.5850438,0.0462403,-0.5107110,0.6698409,0.9474519,-0.5420476,-1.1209712,-0.6348448,-0.2165243,0.2380884,0.0905622,-0.3030122,-0.1484883,-0.0652327,-0.3062450
-0.1457238,-0.0654310,-0.7690526,-0.1588440,0.7002859,1.6182179,-0.8225307,-0.6402661,-0.4571576,0.3768935,0.6652101,0.0450892,-1.1755282,-0.6562676,-0.8522188,0.1546654,0.0885619,-0.3652512,-0.0946609,-0.1678065,-0.1719611
0.0013117,-0.1647007,-0.6166418,-0.2362622,-0.0761043,0.8153133,-0.8685807,-0.5436589,-0.4041247,-0.0843634,0.2641012,-0.2288972,-1.2423447,-0.7150806,-0.6641076,0.4096417,-0.0522005,-0.6135349,-0.0497973,-0.3274805,-0.5447806
-0.0207878,-0.0168576,-0.7125332,-0.2643925,0.1060958,0.7177958,-0.8537351,-0.4435390,-0.0714149,0.2104605,0.5515015,-0.5014159,-1.0452449,-0.5868557,-0.4853466,0.6341626,0.1619007,-0.3209329,-0.1642808,-0.0191453,-0.3937098
-0.1610229,-0.0671076,-0.1397285,0.0478877,0.6993784,1.1271957,-0.4780529,-0.1972555,0.0550878,-0.1054441,0.4744523,-0.1384052,-0.5875990,-0.2744586,-0.3307959,0.7067103,-0.1914508,-0.4151079,-0.1253696,-0.0429946,-0.3237894
0.1040923,0.0976085,-0.3283644,0.8596663,0.7451562,0.9307136,-0.6514100,-0.5275225,0.0118306,0.0928378,-0.1867040,0.4177108,-0.9014549,-0.3217481,-0.3125861,0.7379010,-0.4670871,-0.2396142,-0.3148620,-0.3199636,-0.3657892
0.0961650,0.0583636,-0.3258301,0.4654129,0.2539686,0.8343475,-0.8927536,-0.5440906,-0.6909956,0.1626527,0.0113381,0.0906377,-1.0041277,-0.4905348,-0.2421263,0.5794004,-0.1102024,-0.3672061,0.0265104,0.0738827,-0.1139498
0.0900876,0.1896902,-0.5240175,0.2016976,0.0123749,0.8641115,-0.8823214,-0.4071960,-0.4512473,0.5374362,0.6761558,-0.0679296,-0.9977410,-0.5948844,-0.1082793,0.3942434,-0.0381142,-0.5352382,-0.1371207,0.0162994,-0.1069963
-0.3480409,0.0369381,-1.1428573,-0.2041673,0.4901533,0.0942474,-1.0693346,-0.4514896,-0.4320866,0.2321055,0.0793290,0.5401170,-1.3037856,-0.7820569,-0.2858061,0.6076393,0.1764444,-0.4017284,0.2289932,0.1455376,-0.0807397
-0.1954555,0.0543625,-1.5193291,-0.2669869,0.4609615,0.3806639,-1.4410117,-0.7094163,-0.8195811,0.5050868,0.2161372,-0.1051500,-1.6149515,-1.0582957,-0.2821800,0.7175484,0.1131975,-0.4558950,0.2893868,0.5106878,-0.2718137
-0.1962134,0.1236613,-1.8064363,-0.0113362,0.6725749,0.0849794,-1.3924744,-0.3209669,-0.5668569,0.1921048,0.4671572,-0.4783594,-1.6323316,-0.9886791,-0.1541702,1.0443208,0.0945357,-0.8238590,-0.1040451,0.0668101,-0.4467770
-0.2524422,-0.3061545,-1.6491356,0.3599998,0.5996693,0.0325388,-1.3462715,-0.3998120,-0.3161782,0.3266143,0.2795717,0.3692020,-1.3853353,-1.1145145,-0.0318553,0.9914154,0.0560119,-0.8103137,0.1865335,0.0014688,-0.1913308
-0.0567145,-0.1697634,-1.4976269,0.5689654,1.0371776,0.3022065,-1.0765127,-0.4059964,-0.3398704,0.4687531,0.2854154,-0.1955929,-1.4866966,-1.2067589,-0.0838706,0.7467030,0.0231146,-0.2972448,0.3287057,0.2856948,0.3172553
-0.2451095,0.6168839,-1.0552014,0.4490072,1.1507304,0.7682059,-0.8964379,-0.0542516,-0.1780975,0.3882331,0.5748780,-0.5038220,-1.7386063,-0.8672059,-0.0304359,0.7928376,0.0572622,-0.1901135,0.0425197,-0.0282701,0.2351572
-0.4295583,0.4340583,-0.7798806,0.3550583,1.5015576,1.3628560,-0.9234509,-0.4392070,0.0140941,0.8029088,0.8096700,-0.5554432,-1.2580422,-0.9027968,-0.1293099,0.2665634,-0.0063373,-0.2689060,-0.0558264,-0.0749904,0.0974815
-0.4528666,0.0213317,-0.8644922,0.4572043,0.5308429,1.3075265,-0.8348306,-0.5691568,-0.3158724,0.4422767,1.0766342,0.0154607,-0.7518433,-0.5528858,-0.1830241,0.1395851,0.1322625,-0.3692988,-0.1385680,0.0189682,0.1701012
-0.3609813,0.3512888,-0.7622581,0.0981908,0.1446910,0.9276327,-1.1397792,-0.1481056,-0.8162584,0.2399139,1.2472080,0.0202026,-0.4678599,-0.7580923,-0.4299162,0.5606804,0.4552182,-0.3030135,0.1287424,0.0165176,0.2932717
-0.5630862,0.1461396,-1.3086103,0.2045134,0.1006256,0.5643390,-1.2197037,-0.3203326,-0.5600589,0.7088967,1.4023936,-0.1317147,-0.7168315,-1.0744815,-0.4811932,0.6534382,0.1441654,-0.3004543,0.0076489,0.0224591,0.1226167
-0.3890162,-0.4401517,-1.2933879,0.3135440,0.3776030,0.6570786,-1.3237764,-0.6598592,-0.3521151,0.5086026,0.6915914,0.0722313,-1.4208788,-0.9213030,-0.6924198,0.6886974,-0.1809371,-0.3215304,-0.4479039,-0.1530482,-0.1249508
0.0866588,-0.0240194,-0.6271574,0.8486291,0.3876865,0.8072621,-0.8599173,-0.5886253,0.0987654,0.5165201,0.4772727,-0.1706804,-1.0870427,-0.8396536,-0.2603645,0.9746300,0.2197334,-0.3186832,0.0698377,-0.1763622,-0.2898147
0.5252305,0.3242198,-0.0052404,1.2106953,0.9662844,1.0375535,-0.4533273,0.1375158,0.3553227,0.0612324,1.1466390,-0.4461194,-0.8890299,-0.6647033,0.3002072,0.8323223,0.2076389,-0.0993708,0.5711982,0.0051711,0.3884234
0.5499946,0.9565337,0.6486056,1.4072312,0.6924732,1.3116636,0.0369421,0.3658913,0.8572912,0.8547001,1.4848197,-0.3679903,-0.7972044,-0.3608111,0.5404309,1.0457515,0.1658628,0.6339592,0.4982384,0.2190992,0.6351973
0.7244233,0.8190472,0.7016426,1.5504683,1.0302180,1.6830528,0.3820299,0.6758786,0.8050327,1.3307611,0.7977076,-0.3319022,-0.2987964,0.2586427,0.7287313,1.0031749,0.2113708,0.7796264,1.3543824,0.0768797,0.7323752
0.7378334,0.7029955,0.8745752,2.0561042,1.4763598,1.7004497,0.5127270,1.4643558,1.1288848,1.2796763,1.2567109,-0.0090851,0.0103034,0.2626190,0.7612063,1.3723104,0.4940752,0.9710274,1.4354558,0.4748911,0.8610902
0.4384241,0.5487778,0.9352913,1.7936208,0.7069851,1.9790214,0.3710797,0.8701791,1.5618266,1.4027151,1.1755557,0.6854436,0.2849336,0.2351086,0.9476848,1.4325271,0.2258368,0.8695736,0.8828857,0.8512600,0.7906469
0.3482638,0.2847167,0.1206692,1.1295433,0.3227683,0.9003944,-0.0606844,0.3851948,0.9454471,0.3008463,0.5941735,0.7899151,0.0546327,0.1622300,0.5309982,0.5574980,-0.0005470,0.6231058,1.0346700,0.1721095,0.3661291
0.3084284,0.3855202,-0.1956116,1.1467193,0.0593888,0.5864871,-0.3795307,0.5195491,-0.3192740,0.3084987,0.4898960,-0.1939624,-0.3500607,-0.1444139,0.3091259,0.4061837,0.1240787,0.0878238,0.6479806,-0.0558193,-0.0335802
0.3175209,0.5874364,-0.1160250,1.5722197,0.1137787,0.7865905,-0.4996308,0.2665732,-0.3269604,0.2015266,0.5041978,0.4277480,-0.5716834,-0.4419245,-0.1534935,0.6804411,0.2239635,-0.0127099,0.2742195,-0.0938260,0.1077133
1.1143439,0.5819915,0.7745250,1.9076098,0.4704803,0.5119468,-0.2165443,0.3742387,0.0403166,0.4343526,0.3212090,0.6770961,-0.7900550,-0.4853977,-0.1448473,0.4303401,-0.1085769,0.3828303,-0.0796774,-0.3211659,-0.1925414
1.7383970,1.2468039,0.7332718,2.0660765,0.8511890,0.9930386,-0.2961920,0.7087457,0.6403783,0.5370157,-0.5486188,-0.2164713,-1.3468523,-0.4510838,0.4576425,0.5592383,0.0699935,0.4900365,0.5622512,-0.1609428,0.2003668
