F3,Fz,F4,Fc5,Fc1,Fc2,Fc6,T3,C3,C1,Cz,C2,C4,T4,Cp5,Cp1,Cp2,Cp6,P3,Pz,P4
0.2288921,0.3884034,1.0523123,0.1798566,0.7545432,1.4644198,1.2305640,-1.7074648,0.3380181,-0.0760738,0.5219276,0.1571168,1.2905148,0.7556767,0.3014095,0.3031230,0.2554392,-0.2925640,0.3452146,0.1582117,0.8345693
0.3625473,0.3777604,1.2535660,0.0713185,1.0047482,1.3949634,1.4355807,-2.1732426,0.6324968,0.3744056,0.1591941,0.6087194,1.7186673,0.9536430,0.1909028,0.6999362,0.4336533,0.2656307,0.9004390,0.3463491,1.5109731
0.2235528,0.2262873,1.2773719,0.9570405,0.8864021,1.8260067,1.8348851,-2.0515091,0.0576353,-0.0323528,0.2214326,1.6771325,2.0058866,1.4955270,0.7486067,0.9111207,0.3924896,0.8277202,0.9294637,0.5041793,1.7547398
0.2551334,0.6376074,1.7095703,0.6202379,0.6656618,2.4450834,1.6774479,-2.1739645,0.5784741,-0.2016616,0.3122024,2.0308983,1.9079486,1.4680047,0.4605836,0.3870984,0.8098469,0.5993841,0.6677002,0.2010886,1.6086848
0.3619271,0.4021158,1.8068455,0.8521125,0.2521088,2.2746971,1.9650799,-2.1001482,0.2738054,0.0566936,0.1349127,3.0415998,1.6685106,1.7281827,0.7260385,0.5447676,0.5440904,0.8886036,0.0087601,0.4198944,1.7039069
0.3040116,0.2660174,1.7572881,0.9192528,0.2554040,1.5888615,2.2939498,-2.1645827,0.6284566,0.3737123,0.1361574,2.8121331,1.5495942,1.9691027,0.4618019,0.5046656,0.3191081,0.7270340,0.3344120,0.5059034,1.7290428
0.4868187,0.4915002,1.9663705,0.5217965,-0.1515114,1.5101309,2.1914866,-1.9798901,0.8438818,0.0593137,0.2372705,2.3115280,2.0141456,1.7540034,0.7572445,-0.0122739,0.5060493,0.5159323,0.6434267,-0.0717795,1.7397772
0.2588746,0.6304346,1.7440746,-0.1457869,-0.1560446,2.1112869,1.9021823,-2.1952078,0.1102010,0.0508482,0.2687108,1.3162206,1.3050808,1.4400306,0.1292241,-0.4370445,-0.0405256,0.3678254,0.0941238,-0.1183944,1.2620611
0.1587317,0.2490172,1.2130064,-0.2133204,-0.2689227,1.4476310,1.3145456,-2.3007159,-0.3777737,-0.0076018,0.1707488,2.2140613,0.9491958,0.9227999,0.5606489,-0.0429612,0.0370362,0.1848140,0.4865023,-0.2007160,1.1027770
0.1568750,0.3751748,1.3468927,0.1196338,-0.2393611,1.4142089,1.4219668,-2.1925483,0.9656622,0.1571745,0.2619050,2.1641781,0.8150623,0.9385321,0.3047989,0.5391514,0.0552784,0.2267120,0.9121449,0.2163321,1.2343141
0.4146297,1.1330670,1.1079957,1.2475724,-0.4804031,1.8674475,1.7692004,-2.0857425,1.0532625,0.4689109,0.4020659,0.9627764,1.2715219,1.0359151,0.6259498,0.3313383,0.5218962,0.2720985,0.6740512,0.3845937,1.1371303
0.3343185,0.7997936,1.6947312,0.4018316,-0.4565776,1.5617807,1.7906470,-2.2414398,0.2337561,0.3268330,0.2079449,2.0493615,1.9058987,1.2456189,0.5520110,-0.2743618,0.4945211,0.2839925,0.6350356,-0.2729194,1.0420774
0.2752120,0.4430167,1.4625123,-0.3054453,-0.4702252,1.2595422,2.0054829,-2.2873211,-0.3839558,-0.1724105,-0.0205587,1.9008172,1.9904032,1.3804996,0.4142955,-0.2183741,0.2476199,0.0712337,0.8864270,-0.2282241,0.9860510
0.2102935,0.3590921,1.6734109,-0.5668679,-0.9893847,1.7906214,1.7957864,-2.2952874,-0.7328194,-0.4656672,0.2744273,0.9284561,1.8361150,1.6571047,0.2944911,-0.2398513,0.4751431,0.0202832,0.4820491,-0.4010582,0.8544860
0.1944579,-0.0943543,1.6046144,-0.5082350,-0.6735315,2.0748475,1.2348464,-2.2189970,-0.6101266,-0.0871185,0.3789982,1.9148078,1.4283682,0.9904661,-0.0479081,-0.0898019,0.5889506,-0.0906503,0.2744845,-0.2462378,0.6436872
-0.1443984,-0.1546437,1.4125603,-0.2416417,-0.4383352,1.5297247,0.8066900,-2.1951604,0.0221758,0.2035936,0.4607678,2.1109645,1.1201487,0.4066333,0.2583042,-0.0225810,0.2853796,0.0558010,0.5442081,0.1785527,0.9832711
-0.0359824,0.1281696,1.6360977,-0.1677184,-0.6259933,1.6670142,1.2676592,-2.1725786,-0.1241674,-0.1751728,0.7291430,1.2905140,1.1799164,0.3944119,0.2336754,0.4024602,0.6591370,0.3677896,0.3214821,0.2310304,1.2556099
0.1516413,0.2855844,1.4743569,0.0626610,-0.6767979,1.6271557,1.9121261,-2.3191037,-0.2928601,-0.1851657,0.4991896,1.8113289,1.3335752,1.2158426,0.3870941,0.2264639,0.9140353,0.5404744,0.5576534,0.2745833,1.5022680
0.3066922,-0.0168818,1.1724623,0.1398956,-0.3438977,1.5692673,1.6275492,-2.4234960,-0.1454245,0.1940553,0.5342075,2.6760089,1.8811880,0.9129610,0.2278384,0.2694865,0.2853920,0.3163241,0.9084552,0.2135676,1.4704996
0.1212957,-0.1569190,0.9103151,0.0512064,-0.3730834,1.6379954,1.6647862,-2.2891467,-0.1716361,0.1861377,0.3404963,1.0412333,1.8298137,0.8874640,0.1334707,0.4276933,-0.1064152,-0.0142194,0.7587776,-0.0836161,1.5162385
-0.0735675,-0.1082442,1.0732191,-0.2556745,-0.4066979,1.7587794,1.4171965,-2.3369756,-0.3150446,-0.0347156,0.3796819,-0.1985920,1.3911120,0.5835780,-0.5041748,0.1297230,0.0628073,-0.5876989,-0.1342942,-0.5570323,0.9604971
-0.2387413,-0.1976277,1.2684224,-1.2316602,-0.5202855,1.7997795,0.8428738,-2.5019698,-0.7290602,-0.8002430,-0.0220090,1.0610125,1.0699269,0.1155802,-1.0125209,-0.9499929,-0.3444988,-0.8376877,-1.0524278,-0.7059011,0.3154739
-0.2267509,0.0318898,0.8248448,-1.2900646,-1.1208117,0.9852449,0.7826231,-2.5155559,-1.4034797,-0.9096708,-0.2737478,1.0126845,0.5404752,-0.3465229,-1.3116132,-1.2110236,-0.1586726,-0.6219949,-0.6577536,-0.9725027,0.5689296
-0.0425932,0.1697211,0.9800908,-0.7888762,-1.1320314,1.0885762,0.9856034,-2.3605089,-1.1281643,-1.1905837,-0.2350777,0.4202341,0.8720484,-0.1276231,-1.3259190,-0.9951359,-0.1264012,-0.6616594,-0.4462221,-0.7997161,1.0399171
-0.3184342,-0.0227562,0.8567379,-0.7880793,-1.6871033,1.5299610,0.8515319,-2.2982371,-1.3544275,-0.7865346,-0.2906450,0.6755698,0.9504461,0.0452663,-0.6119540,-1.0366093,-0.4826807,-0.5645505,-0.6732765,-0.6556113,1.2083871
-0.5355951,-0.0198935,0.8597016,-1.3179870,-1.7061772,1.2581917,1.1070237,-2.3691206,-1.1625750,-0.7190329,-0.4459828,1.4674970,1.3020892,0.3263026,-0.3442988,-1.2256238,-1.0180583,-0.5513936,-0.8465526,-1.0126802,0.7154953
-0.2676976,-0.1375889,1.1349792,-1.1706245,-0.8787234,1.4183708,1.3183682,-2.3454041,-1.0632876,-0.7985086,-0.3627087,0.3580684,1.2136487,0.2487696,-0.8674092,-0.9999843,-1.1297756,-0.4809668,-1.0263345,-1.0560060,0.2744317
-0.1090019,0.1090638,1.1107973,-1.1257962,-1.3401414,1.7069306,1.5863605,-2.4580879,-1.4601083,-1.1190279,-0.7250856,0.2379641,0.7121821,0.3319149,-1.0346621,-1.5713811,-2.0303237,-0.8263716,-1.3340008,-1.2896315,-0.1347867
-0.0079921,-0.0036422,0.9267634,-1.0488954,-1.3560326,1.0373216,1.0671916,-2.5254111,-1.2128724,-1.3749847,-0.5769304,-0.0702154,0.3280811,-0.2319739,-0.7916850,-1.7184086,-1.9896775,-1.0676500,-1.5920101,-1.4853647,-0.2703309
-0.1685591,0.0534768,1.3783979,-0.4066810,-1.3183488,0.9869815,0.8168066,-2.5686166,-1.8558184,-1.4720622,-0.6295529,-0.3967552,0.3479424,-0.4296730,-1.0736952,-1.7079853,-1.7573941,-1.2025652,-1.5057290,-1.6290374,-0.4472632
-0.1796755,0.1918151,0.8687017,-1.2514859,-1.2748038,1.2180872,0.4120885,-2.5849581,-1.9095111,-1.3775774,-0.6456912,-0.5461236,0.4359145,-0.0879064,-1.1207979,-1.0059211,-1.4621223,-1.2531850,-1.1246059,-1.2764399,-0.3396772
-0.2915792,-0.2851881,0.1900267,-1.7185236,-0.7763972,0.7097068,0.6832061,-2.5266252,-1.2453091,-1.2371689,-0.3307225,0.1772524,1.1865790,-0.0526161,-1.2498513,-0.9319935,-0.6596227,-1.1112238,-1.4539484,-1.1603349,-0.1271784
-0.2014401,0.0377995,0.5787847,-1.7107415,-0.8544966,0.5803754,1.3669834,-2.5006406,-0.4419687,-0.9750126,-0.2880293,0.5202439,1.4888332,0.0034671,-1.0636522,-0.9258716,-0.3373825,-0.6901908,-1.2436951,-0.6409071,0.3422038
-0.0952100,0.2622884,0.6961015,-0.9690846,-0.9222152,0.9006222,1.5949314,-2.3444674,0.2154675,-0.6304550,-0.4184203,-0.0712737,1.8759079,0.6027670,-0.7848732,-0.9680715,-0.3015430,-0.2543249,-1.1509188,-0.1773713,0.7188882
0.2014423,0.2822960,1.2738444,-0.3814341,-0.6375813,1.1469783,1.7309923,-2.1237504,0.3974164,-0.4653306,-0.4581130,0.6882960,1.7234159,1.1021123,-1.0176575,-0.9100739,-0.4727666,0.0697594,-1.1175051,0.0605610,0.8260351
-0.6871193,0.2963130,1.1617141,-2.2092867,-1.5556053,1.4766163,1.5416898,-2.2606490,-1.3679099,-1.2267146,-0.7050689,0.4843277,1.0808724,0.7419731,-1.9812174,-1.3977939,-0.9971670,0.0392400,-1.1002141,-0.8541036,0.7521294
-0.9445281,0.1701531,1.0573312,-2.1046324,-1.2213390,1.8323869,1.7831761,-2.6085422,-2.2654312,-1.2596582,-0.4974529,-0.0474168,1.2318789,0.6666108,-1.1374130,-1.1203312,-0.4060089,-0.1600462,-0.7695013,-0.7448425,1.0089270
0.4765571,0.2960957,1.5216575,0.3535949,-0.0244099,1.1923339,1.9904678,-2.4372599,-0.2825351,-0.5016683,-0.1679240,-0.2258531,1.7082821,0.6896805,-0.5488736,-0.4134442,-0.3231048,-0.4553566,-0.2443680,-0.3678159,1.1187065
1.0937260,0.3563022,1.5001922,0.6681275,-0.1879886,0.8310004,1.7168226,-2.2898400,-0.2519836,-0.4925378,-0.3298825,0.7938966,1.6906910,0.4499128,-0.3896877,-0.4266301,-0.1457069,-0.2451225,-0.4311537,-0.2176966,0.9700627
0.6336457,0.2043823,0.9838659,0.1613136,-0.6522681,0.1833207,1.3057323,-2.3055451,-0.2913032,-0.4694229,-0.0589344,0.2377584,1.5046501,-0.0972677,-0.9153317,-0.5583931,0.2016277,-0.2010835,-0.0419910,-0.1627373,0.7472954
0.8663267,0.5128860,1.0137144,0.6918080,-0.2916645,0.4649329,1.0685314,-2.2875974,-0.2492323,-0.1672183,-0.0844776,-0.3271945,1.6891295,0.1753342,-0.7250971,-0.3826095,-0.0305363,-0.0595215,-0.0014365,0.2637613,0.8526430
1.1201395,0.8177176,1.1839275,1.2476974,-0.7119060,0.7094828,1.2092798,-2.2345603,0.1452283,-0.0244856,-0.4592207,0.5882948,1.7370312,0.5055115,-0.7438804,-0.4731674,-0.4627147,-0.7988352,0.0194934,0.1006957,1.0040052
0.7612756,0.5181395,0.7890808,1.4972339,-0.7253471,0.3513533,0.6990594,-2.1520071,-0.1852647,0.1216720,-0.2354336,0.2857822,1.1819661,0.3407809,-0.6032729,-0.7637454,-0.8877789,-1.0440494,0.0769074,-0.2936876,0.5441846
0.9043258,1.0759825,0.7126681,0.7416486,-0.4146584,0.7635837,-0.2262428,-1.9880581,0.0569629,-0.1280008,-0.3270021,-0.7167270,0.6834677,-0.2178345,-0.6909996,-1.0802002,-0.7574636,-0.9217293,-0.6181266,-0.6024292,0.4537501
0.6542052,0.6617575,0.6866046,-0.2915802,-0.6226818,0.7494367,-0.4339879,-2.1595941,-0.6601138,-0.2062490,-0.3725450,0.2161381,0.2285010,-0.5327276,-1.1342970,-1.4640130,-1.0910503,-1.1665881,-1.1531711,-0.7603803,0.2618351
0.3387009,0.3501965,0.5218596,-0.2475884,-0.8032011,0.8901059,-0.1695256,-2.2722991,-1.0208731,-0.7630869,-0.4906564,0.5566074,0.4211901,-0.6391926,-1.0590541,-1.3018383,-1.2259635,-1.2053791,-1.0146383,-1.0239614,0.0649333
0.5392582,1.0497525,0.6272615,0.2932317,-1.2341666,1.2119749,0.5156951,-2.2300954,-0.4880962,-0.8254664,-0.3962611,-0.4475766,0.5175017,0.2077362,-0.6443827,-1.4776616,-1.5673974,-0.9497982,-0.6533130,-1.4940941,-0.2209029
0.8452132,1.2139889,1.0897181,0.1658715,-0.6472690,1.7208358,0.3105972,-2.2367244,-0.3391927,-0.9360964,-0.2777286,-0.2691426,0.4640506,-0.1071475,-0.6736163,-1.2294246,-1.6040385,-1.2567441,-0.8597530,-1.4057010,-0.5028425
0.5923049,0.6219189,0.6601611,-0.1243553,-0.3585106,0.5257997,-0.0331501,-2.2836974,-0.9184487,-1.1821057,-0.2633528,0.5612335,0.1504323,-0.3472520,-0.7736621,-1.7734834,-1.8387816,-1.4041301,-1.3725580,-1.5869989,-0.4934498
0.6526032,0.8971229,0.4477176,-0.1423773,-0.8183733,0.7603502,-0.1466697,-2.2684007,-1.1764625,-1.3634853,-0.2777975,-0.0131083,-0.3625650,-0.6465011,-0.9481963,-1.4528365,-1.8620526,-1.7994819,-1.7278359,-1.9803228,-0.6443760
0.4202664,0.9650550,0.5544689,-0.2385678,-0.9791597,1.6359020,-0.0205721,-2.1429980,-1.1697764,-0.8505180,-0.1370200,-0.8320317,0.2651918,-0.6497537,-0.8522116,-1.2710057,-1.2413619,-1.6427200,-1.3634517,-1.6690792,-0.5510982
0.3345865,0.2613521,0.2742943,-0.4277767,-1.1091844,0.6178319,-0.4966808,-2.2360699,-0.9463972,-0.7854713,-0.1350501,0.4173585,-0.0262019,-0.2513214,-0.6899710,-1.3570379,-1.6486797,-1.2146817,-1.5174226,-1.3161372,-0.5194786
0.2721096,0.0150426,0.2951277,-0.2425772,-0.9839181,0.6439102,-0.5137614,-2.2979991,-0.6571296,-1.2517414,-0.2522225,0.3653019,-0.6054417,-0.3939113,-0.6058537,-1.5744122,-1.3729675,-1.2351220,-1.2533233,-1.7505581,-0.5357786
0.4310078,0.6222696,0.8707395,0.0990183,-0.5898059,1.5892968,-0.0831239,-2.2344375,-0.4125274,-1.3424112,-0.1085305,-0.6781181,-0.2248196,-0.3871814,-0.3136073,-1.3024571,-1.0507811,-1.6824896,-1.0380381,-1.7503320,-0.4294647
0.4678949,0.6257583,1.2607857,-0.2775084,-0.6344123,0.5384433,0.0977117,-2.1673899,-0.2081710,-0.6660005,-0.1828345,0.1348212,-0.0984952,-0.1497292,0.1562217,-0.5607762,-0.9264361,-1.3862216,-0.8199453,-0.8054887,0.0007283
0.6264927,0.4745305,0.7551568,0.1956751,-1.0899265,0.7256957,0.1340367,-2.1226039,-0.2555694,-0.6346429,-0.2530725,0.1877823,0.3320949,-0.0839090,0.3931731,-0.5301422,-1.0064903,-1.4796935,-0.2955606,-0.7911921,0.1199731
0.8331857,0.4921607,0.6881959,-0.0487574,-0.5330172,0.7534262,0.3100720,-2.0492556,-0.0300147,-0.5130027,0.1071083,-0.2013537,0.6929018,-0.0281911,0.4541660,-0.1077575,-0.4251537,-0.9942772,0.5161788,-0.2275053,0.5582213
0.8509191,0.5323548,0.6421599,0.4684359,-0.0393069,1.0399703,0.8388186,-2.0726638,0.4910815,-0.2716832,0.0378645,-0.1309978,1.2122377,0.3967401,0.4802204,-0.0394955,-0.1408754,-0.4180225,0.6285640,-0.0337966,0.7587781
0.4010142,0.1771429,1.1848772,0.9176988,-0.3092578,0.9587465,0.7179832,-2.1146798,0.5044954,0.0043645,-0.1284076,0.1647450,0.9897034,0.1909330,0.8068814,0.0014063,-0.2087672,-0.0367324,0.8209940,0.0134439,1.0267913
0.3438570,0.7660785,1.4016660,1.6192209,-0.0923947,0.9101873,1.0697929,-2.0025079,0.3526081,-0.1466813,0.0341170,-0.0420996,1.1881524,0.8863695,0.4095330,0.6996902,0.3943434,0.2508816,1.4390695,0.4325930,1.3599893
0.5397407,0.5720472,1.2745388,1.6687702,-0.3408260,1.4057022,1.0303258,-1.9425409,0.5390106,-0.1718739,-0.0822915,0.0026104,1.4645699,1.6812354,0.7576713,1.0070368,0.1023040,0.0370603,1.3022382,0.5068812,1.5475123
0.5145122,-0.1452145,1.2830284,1.1938044,-0.7123952,0.9885372,0.7049940,-1.9530417,0.5074372,-0.1960544,0.0763224,1.4163567,1.4415563,0.9655464,0.1663154,0.5702596,0.3328057,-0.1946332,1.0424869,0.3549244,1.1111040
0.7644881,0.3403973,1.8907199,0.4835426,-0.6711633,0.8492105,1.2133852,-2.0377362,0.2089524,0.0856023,-0.0076275,1.6320536,1.5055487,0.3784803,0.2208513,0.6886242,0.7222891,0.1355962,1.5039685,0.3039496,1.1464429
0.5674372,0.6010767,1.4172692,-0.1088844,-0.4565494,1.2071830,1.1277490,-2.0910563,0.0737364,-0.1195385,0.1258396,1.4117258,1.2711564,0.3501079,-0.0288118,1.2450633,0.6668968,-0.1412412,1.0306058,0.3198603,1.0965381
0.6654451,0.1146026,1.5897706,0.0656428,-0.1438658,1.2701365,0.8291634,-2.1045127,0.0297845,-0.1137881,0.2785859,2.1767378,1.3037809,0.5945804,0.2065132,1.5061190,0.7228059,-0.3056456,0.6612921,0.2197740,0.9283228
0.5645751,0.0740928,1.8324203,0.2048845,-0.4226854,1.3702796,0.7281355,-1.9834311,0.6237673,-0.2954743,0.2127606,2.1209519,0.8944495,0.5286359,0.4225209,1.1670483,0.7251158,-0.3510480,0.9166052,0.3733231,0.8781592
0.4113717,0.3520537,1.4518895,-0.0739185,-0.2365847,1.1217083,0.5510791,-2.0245712,0.5992110,0.0318490,0.2423472,0.8611253,1.1992625,0.1100006,-0.0235991,1.0164293,0.7186661,-0.6380898,0.9729488,0.1778564,0.9429803
0.0256940,0.3868316,1.1684340,-0.5922121,-0.6185540,1.2236141,0.0751428,-2.1405065,-0.0437560,0.2404179,0.1739966,0.3852799,0.9592744,-0.4255657,-0.5754884,1.0363077,0.4780826,-1.0397691,0.2126381,0.4173050,0.5863628
-0.0890201,-0.1317793,1.0419327,-0.2010434,-1.3551422,0.6844916,-0.2871315,-2.2108450,-0.7678815,0.3332224,-0.0521811,1.7862048,0.6936675,-0.5210320,-0.6219938,0.7295853,0.2537292,-0.9690239,-0.2933864,0.3545063,0.1770698
0.1203855,0.1405479,0.8213239,-0.3170007,-1.3528796,0.0002550,-0.1091712,-2.1839566,-0.7624344,-0.0894807,0.0562575,1.0147494,-0.0041485,-0.6575864,-0.2492366,0.5749188,0.0493422,-0.8716687,0.2606128,0.2715391,0.2746544
-0.1069709,0.0873973,0.5027341,-0.3939056,-1.0271389,-0.0821097,-0.3232509,-2.1645589,-0.7669791,-0.3556869,0.0400891,-0.3159960,-0.5116675,-0.9816213,-0.0134813,0.4519432,0.0959496,-0.9654137,0.6420881,0.5164130,-0.1188926
-0.2662774,-0.4126251,0.5223273,-0.7587278,-1.3816512,-0.1374152,-0.6006412,-2.3229856,-0.8869929,-0.9526235,0.1612086,0.2050630,0.1521732,-1.0760031,-0.7993045,0.3018086,-0.3387989,-1.2342384,-0.0987817,-0.2884766,-0.1094782
-0.5065492,-0.0580112,-0.2194579,-1.2162325,-1.5948896,-0.1866330,-0.7972709,-2.3834674,-1.7286619,-1.2984347,0.0932547,0.5380021,-0.4545835,-1.1721755,-1.4564487,-0.2836292,-0.0164758,-1.2192551,-0.1291028,-0.2797499,-0.0778245
-0.7033769,-0.0851628,-0.5282254,-1.6753169,-1.6764262,0.1280572,-1.4474519,-2.3734419,-2.0585930,-1.4942006,-0.2025677,-0.2080796,-0.4084910,-1.3305223,-1.2707185,-0.4386909,-0.5081229,-1.7290201,-0.4139038,-0.4631775,-0.1327740
-1.1542568,-0.7629358,-0.2976136,-1.5574048,-1.2088245,0.0366844,-1.4635944,-2.3641138,-1.7895013,-1.2495074,-0.1748968,-0.5079175,-0.8323478,-1.5965682,-1.5825676,-0.3670239,-0.9548094,-2.1421554,-0.9964384,-0.6991377,-0.4389411
-1.1375518,-0.4534270,-0.0827714,-0.9665160,-1.8465272,-0.1922322,-1.3411665,-2.4207337,-1.9546884,-1.4608130,0.0333614,-0.1818534,-0.6255327,-1.4365473,-1.6960449,-0.9176444,-0.8475180,-1.6348957,-1.1256062,-0.6926911,-0.3235722
-0.5802855,0.3139111,-0.2957177,-0.0957296,-0.8603578,0.4106500,-1.1283205,-2.1903384,-1.8636259,-1.7907802,-0.3262043,-2.3616104,-0.9924945,-1.2553709,-1.0757486,-0.9703634,-1.4725868,-1.4908289,-0.4709358,-0.9222723,-0.3565692
-0.3696346,0.4676571,-0.3521528,-0.5507224,-1.3981873,0.7249290,-0.6723052,-2.2372787,-1.8620918,-1.5485060,-0.6054747,-1.9593811,-0.1076585,-0.7150291,-1.8028338,-1.0885918,-1.3861421,-1.0066190,-0.4309523,-1.2064157,0.0996978
-0.5410894,0.2328690,0.1414895,-0.3027265,-1.8683490,-0.0940522,-0.3517419,-2.2170956,-1.6602657,-1.2743467,-0.4487426,-0.6541353,-0.3043874,-0.6973077,-1.2736446,-0.5749717,-0.5344958,-0.8365785,-0.2468443,-0.9107249,0.0231054
-0.6221681,0.5951687,0.5707972,-0.2096325,-1.2245526,0.6588381,-0.5960498,-2.0540693,-1.2854820,-1.0340995,-0.4463630,-1.1057364,0.0537955,-0.5788222,-0.7685127,-0.0894887,-0.4891642,-1.1952097,0.4801194,-0.2099712,0.1309376
-0.4284621,0.4152243,0.4754562,0.0409333,-1.0556194,0.5809669,-0.6260931,-2.0719929,-1.3326619,-0.8921680,0.0137270,-0.7063298,-0.1436314,-0.3405507,-0.5575027,-0.2349509,-0.5708292,-1.0210676,0.1101001,0.0869289,0.3282623
-0.4322031,-0.1010485,0.0304488,-0.3593558,-1.0821148,0.3249968,-0.0597336,-2.0932455,-0.9513995,-0.3571926,0.1142493,-0.0747975,-0.3604998,-0.3799983,-0.4016698,0.1275942,-0.6913129,-0.8863480,0.2785130,0.0179370,0.7598904
-0.4424412,-0.1021433,0.1658287,0.1971205,-1.5281063,0.5436559,0.0056191,-2.0649686,-0.7360457,-0.6515939,-0.0118011,0.2531681,-0.3243849,-0.5500916,-0.1787767,-0.1584448,-0.6617452,-1.0559664,0.2365639,-0.2615071,0.7258703
0.1238939,0.1219731,0.2654562,1.0616119,-1.4102547,0.8946635,-0.0291608,-1.9322143,-0.3631991,-0.9278180,0.1723207,0.0895487,0.1023760,-0.3769793,-0.3502434,-0.0667252,-0.0844599,-0.8463835,-0.0756385,-0.2546015,0.5315651
0.0985262,0.4968707,0.6744382,0.5320837,-1.1727303,0.3824540,-0.0851709,-2.0118270,-0.4866297,-0.5653288,0.0929679,0.7771622,0.6102702,0.2473914,-0.0033351,0.0939898,0.1826026,-0.8014433,-0.1412134,-0.0353282,0.6493112
-0.1038581,0.2254376,0.8530805,0.6940770,-1.4531888,0.2223910,0.2158238,-1.9448664,-0.2428678,-0.2492518,0.2271329,1.6021961,1.2569722,-0.0113070,0.1929345,0.7024061,0.3035296,-0.6002289,0.3508899,0.5184277,0.3972587
-0.0903792,0.1853068,1.1877884,1.2307793,-0.8205740,0.9816100,0.8989232,-1.8085208,-0.0407241,-0.2342212,0.4188020,1.0152643,1.6318386,0.2340014,0.6674636,1.0665971,0.6081572,-0.5835603,0.6260268,0.3618599,0.4400121
0.2508483,0.2742029,1.6459370,0.7570160,-0.2300048,0.5291862,0.4346991,-1.7836593,0.6303334,-0.6196336,0.5348207,0.6348271,1.3475698,0.6403358,0.9735637,1.2716833,0.2847025,-0.3934693,0.8575044,0.3457051,0.6005363
0.1320925,0.2495732,1.5503912,0.9269947,-0.7759096,0.6551961,0.2322966,-1.7735827,0.9242033,-0.1010915,0.1384261,1.9150957,1.3647130,0.6349118,1.3676387,1.1693493,0.3511385,0.1402775,1.0072488,0.2975889,0.7623852
0.1919083,0.0423051,1.2127440,1.7850322,-0.6322241,0.0612648,0.7000937,-1.7222096,0.6425317,0.0450183,0.1097255,1.1373255,1.7064397,0.8272672,0.8135768,1.6205570,0.5279474,0.0914046,1.3678446,0.8992646,0.9779047
0.3127803,0.1806277,0.9869762,1.5756776,-0.2744805,0.5957624,0.4562777,-1.5768205,1.3876616,0.2935629,0.3832372,0.0908373,1.7745010,0.9884853,1.1210977,1.4036474,0.4982373,-0.3160784,1.4091243,1.2121819,0.9707717
-0.1665922,-0.0837337,0.0936431,0.6284831,-0.9217457,0.4257300,-0.9579335,-1.6128100,0.9965576,0.5670440,0.3409899,1.3550930,0.8651600,0.2844085,1.1993717,1.4993781,0.9769199,-0.7901175,1.6364596,1.3525193,0.8286516
-0.2000172,0.0326860,0.9335818,0.3370101,-0.7104823,0.3317932,-0.1068231,-1.6557342,0.3542362,0.0366437,0.3132969,0.8878856,0.7810484,0.8267255,1.2312572,1.4378985,0.7931122,-0.3511867,1.4396390,1.1082569,0.7347527
0.2571703,0.7330754,1.6492209,1.2950125,-0.3091812,0.3971586,1.4395432,-1.7602241,0.2029338,-0.3416440,0.2177369,0.1411185,1.0884377,1.3553706,0.7448805,1.0922748,0.6640714,-0.4886895,1.1945387,0.5874171,0.5750452
0.2120095,0.1628357,1.4839383,1.4163731,-0.3629772,-0.1104326,1.5623113,-1.8014537,-0.0215592,-0.4024018,0.0216224,0.8622383,1.5611930,0.9846959,0.7485487,0.9254341,0.6523632,-0.1777027,1.4430875,0.9072224,1.2216353
-0.1429639,-0.2130692,1.0574685,0.4480381,-1.1866920,0.1015769,1.2750428,-1.8112525,-0.0403322,-0.5231693,0.0581283,0.7200660,1.8584995,1.4034356,0.6138247,0.9108762,0.6691454,0.3420789,1.6947271,1.4572580,1.5017959
-0.6430449,-0.0569462,0.7593818,0.0767343,-1.1835567,0.6526690,1.7299342,-1.7294214,-0.4521304,-0.7262543,-0.0717008,-0.2422644,0.5826536,1.1210259,0.4568072,0.6584181,0.3774635,-0.2407605,1.4203126,0.3334414,0.8217102
-0.8045585,-0.7250943,1.1081758,0.3367505,-0.9079986,0.8649541,1.4337904,-1.7034538,-0.1966951,-0.7608048,-0.0047420,-0.1654407,1.1456050,0.8716425,0.3346758,0.4924431,0.4417229,-0.0545116,0.9545373,0.2929140,0.8356730
-0.7668362,-0.8319293,1.1649055,0.4067525,-1.0079719,-0.0364500,1.3544557,-1.8236997,-0.4967645,-0.5011494,0.0108381,0.3926981,1.1757324,0.7104130,0.0025249,0.0980562,0.0050274,-0.2602024,0.4518465,0.3017977,0.8630458
-0.7043163,-0.4121613,1.5022247,0.3106216,-0.4125055,-0.3068314,1.4344029,-1.7794349,-1.1410412,-0.9394956,-0.1851342,-0.0907057,0.9555167,0.7217330,-0.0208230,-0.0205054,0.5909930,0.1527903,-0.0063873,-0.0751662,0.8519531
-0.5361056,-0.4728655,1.1670523,0.1919936,-1.1032970,0.1959602,1.3540268,-1.6930332,-0.9178213,-0.8254175,0.0661369,-0.7038797,1.3019978,0.6508778,0.1847624,0.1938333,0.5815250,-0.0802387,0.1015674,0.3005729,0.9084811
-0.7762461,-0.5277533,1.4705262,0.3878624,-0.9473775,0.4418835,1.5024732,-1.6071573,-0.2458423,-0.5393986,0.0985103,1.2156876,1.3051728,0.7789243,0.3567071,0.3891761,0.5380249,-0.2756072,0.3144275,0.3481595,1.0493211
-0.8699974,-0.2766947,1.4678658,0.2297015,-1.4838353,0.5547896,1.6074113,-1.5974123,-0.0193617,-0.2178218,0.0566807,1.5078151,1.2352608,0.9012159,0.3817305,0.5970927,0.4042199,-0.1448045,0.6265751,0.2436415,0.6198361
-0.6402811,-0.4030974,1.5632305,0.3290000,-1.0793685,0.8798313,1.6550832,-1.6685860,-0.9774292,-0.8439238,-0.1084623,0.4032874,1.0100802,0.7371931,0.5036983,0.2521948,0.5290950,-0.2272315,0.4845227,-0.2918392,0.2669614
-1.0036654,-0.4512042,1.9244657,0.2094790,-1.5745025,1.3918250,1.3132406,-1.6916817,-0.3503260,-1.1154722,-0.1496514,0.9824743,1.0189813,0.8986928,0.2397532,-0.1384591,0.4092034,-1.0117501,-0.0090666,-0.6348417,0.4303774
-0.7671925,-0.3029766,2.2189233,-0.0733738,-1.3219465,1.1095721,1.6381313,-1.7234601,-0.9047472,-0.9599524,-0.1607065,1.5221422,0.7394269,0.5652224,0.1927601,-0.5716358,0.0195470,-0.7366959,0.1405499,-0.5095839,0.3766250
-0.5407480,-0.3396965,2.3599575,-0.3169584,-1.3119372,0.8929148,1.4636306,-1.7365590,-0.9033373,-1.2147183,-0.2029270,0.0976792,1.0447986,0.5174284,-0.0727281,-0.0082793,0.3169566,0.1367077,0.6418734,0.2096149,0.1809316
-0.8834698,0.0699248,2.2321045,-0.0875281,-1.5165789,0.8060337,1.0841421,-1.8112221,-1.0506047,-1.2850685,0.0544329,0.4027716,1.1834235,0.7606290,0.0170439,0.2910118,0.4251133,0.0141081,0.5284727,0.2660659,0.3611750
-1.0420957,-0.4735617,1.7810836,-0.1636838,-1.8163007,0.6412416,1.4306091,-1.7765704,-1.0061557,-0.9289068,0.0966908,1.2717785,1.2769443,0.6967936,-0.3143807,0.2758230,0.1917761,0.0268369,0.9140593,0.0588863,0.8240070
-0.7552630,-0.0677662,1.5734497,-0.6642979,-1.4234147,0.3693486,1.4955372,-1.6778837,-0.5543013,-1.0179067,0.0812133,0.3373744,1.3415455,1.1337775,0.1419613,0.4104136,0.6322117,0.3141878,1.0637656,0.2410464,1.2298317
-0.7433034,0.1717150,1.5102499,-0.9318216,-0.7163063,0.5313606,0.9566253,-1.6122105,-0.7142942,-1.3029108,0.3262746,0.0670052,1.6338422,1.3149472,0.0313973,0.4506061,0.9229175,0.4673971,0.7892187,0.4857040,0.8943251
-1.0653241,-0.1216591,1.1963727,-0.7155493,-1.0399262,0.4446343,0.7100986,-1.7847542,-1.0696634,-1.2837631,0.1918194,0.4527213,1.3543284,0.8399301,-0.0827030,0.2069131,0.4910885,0.1751807,0.5630934,0.3536159,0.7518818
-1.0339779,0.0198398,1.1668584,0.0416248,-1.2110240,0.5842996,1.1441592,-1.8594695,-0.9957836,-1.2905538,0.3307109,0.6592728,1.4586024,0.8293194,0.0585305,0.5062866,0.6754460,0.0810635,1.0437241,0.6464626,0.9911587
-0.7288078,0.1336688,1.5098858,-0.2683350,-0.7893229,0.5005095,0.9433017,-1.8222241,-1.2949667,-1.2782456,0.3129930,-0.3934880,1.4211031,0.9442351,-0.2408233,0.6345679,0.6009309,0.2248518,1.1994609,0.6685660,1.1252041
-0.3265969,0.6862510,1.8881505,-0.6713216,-0.8406622,0.5467358,1.6744097,-1.7488393,-0.9948381,-1.3545541,0.2122800,0.1724065,1.8334742,1.0216171,-0.2370252,0.6483570,0.8271771,0.7156175,1.6248217,0.9218766,1.3529207
-0.1893677,0.1845276,2.1578660,-0.3277008,-0.9259170,1.2661836,2.0596633,-1.7201422,-0.7900272,-1.1013721,0.1193665,0.2255170,1.6161809,1.1065830,0.3708624,0.7072915,0.8941876,0.5110101,1.4817964,0.9449725,1.2967756
-0.5391957,0.6073891,1.7851397,0.0913761,-0.7539995,1.4150102,2.0601678,-1.5969028,-0.2690705,-1.3219398,0.2445790,0.2017923,2.1763279,1.2978702,0.5481840,1.1076585,0.7231799,1.1340293,1.7425712,0.8948297,1.3886377
-0.5626549,0.3993355,1.9992872,-0.1373010,-0.8415201,1.3635606,2.0754986,-1.6674944,-0.8438531,-1.4358541,0.1458773,0.4889441,1.8939070,1.3563414,0.3350157,1.0393325,0.5183904,0.3443244,1.5072488,0.7555742,0.8459265
-1.0535544,0.1574786,1.6397207,-0.5564904,-1.1355939,0.9421555,1.0623373,-1.7215772,-0.6996226,-1.3663626,0.0075334,0.8475699,1.1324886,1.3404646,0.0221773,0.4580181,0.2937011,-0.0561720,1.3617406,0.5639085,0.8270028
-1.3173940,0.6650153,1.4872998,-0.6533065,-1.4489189,0.3179639,1.1903615,-1.7312911,-0.9474939,-1.8043768,-0.0298335,0.3561054,0.8860610,0.9399945,-0.4033637,0.3530498,0.1492751,-0.0941051,0.9699417,0.3564648,0.6194987
-0.9610021,0.2351664,1.2020706,-0.3569472,-0.9269334,0.4204531,1.3166220,-1.7089932,-1.1767712,-1.9034804,-0.1030398,-0.7030168,0.6382043,0.8075126,-0.4173857,0.2354564,-0.0370243,0.2120718,0.9475210,0.1973844,0.7059995
-0.8496840,0.2421997,1.4627928,0.0406671,-0.5679133,0.5265391,1.1185127,-1.5793480,-0.6266915,-1.6799750,-0.3379619,-0.1542957,0.9842262,0.8925783,0.0152353,0.2196515,-0.3727831,0.1474592,0.9821486,0.1656586,0.7618188
-1.1088901,0.2117870,1.3468397,-0.4902829,-1.2225662,0.2653131,1.1242340,-1.4554169,-0.8884904,-1.5229428,-0.2583312,-0.2630467,1.0529162,0.8618839,0.4800714,0.1779701,-0.0644764,0.1468608,1.1035088,0.3080939,0.7344761
-1.0172880,0.3050484,1.1613147,-1.1221718,-1.4657264,0.6316388,1.3322542,-1.5853131,-1.4704894,-1.3530631,-0.3319476,-0.3642387,1.4108367,1.1318742,-0.0769034,-0.4417957,-0.4843235,-0.0692242,0.5898117,0.0138207,0.6653501
-1.3870349,0.1550537,0.6893354,-1.1032267,-1.7203721,-0.0795781,0.5172689,-1.7712700,-1.6204562,-1.5412254,-0.4176025,0.2924158,0.5975854,0.5664362,-0.6319071,-0.8647033,-1.2564708,-0.2286637,0.0151819,-0.8970052,0.1143398
-1.4544045,-0.0568253,0.7381873,-1.1679083,-2.0624781,0.0117519,0.2765448,-1.8737441,-1.7495726,-1.6043687,-0.3047985,0.7045201,0.7194734,0.0908739,-0.9110247,-0.9440188,-0.6773992,-0.1698910,0.6971998,-0.8134544,0.4018230
-1.4728484,0.1510956,0.4908166,-1.3361022,-2.3903971,0.6232297,0.8225378,-1.8257983,-2.0360317,-2.1344862,-0.0887794,-0.4020113,0.6582637,0.2019503,-0.6541593,-0.7940925,0.0414247,-0.7532212,0.6222717,-0.6010599,0.3383939
-1.3096060,-0.0156350,-0.1168441,-1.9533725,-1.8813655,1.0223614,0.4476802,-1.7404511,-1.0002162,-1.4233752,0.0552329,-0.4767571,0.4671530,0.2514019,-0.7727951,-0.4168827,0.0308969,-0.7263949,0.6777567,-0.0544629,0.2016956
-1.0654966,-0.4329107,0.6182771,-1.4253578,-1.6078216,0.4626920,0.4848219,-1.8061408,-1.1121913,-1.2610575,0.1527602,0.8480169,0.9056711,0.1743717,-0.9032936,-0.3154600,-0.4716130,-0.2371197,0.5225211,0.0404688,0.0972702
-0.7904678,0.3135445,0.8386940,-1.0510043,-1.4241475,0.9543416,0.8102452,-1.7444420,-1.7271589,-1.5413638,0.0022555,0.2025024,1.0782206,0.4515240,-0.7713814,0.0994099,-0.0357687,0.0081897,0.8212113,-0.0173561,0.4614238
-0.7120216,0.6696324,1.0512135,-0.8442889,-1.0560622,0.9733444,1.1043403,-1.6508092,-1.2652529,-1.2495369,-0.0589164,-0.0848787,0.9707905,0.5817138,-0.7653006,0.4857902,0.7485673,0.1047010,0.6977699,0.0410996,0.5082728
-0.6856732,0.0563801,1.5632279,-0.2313886,-1.1881678,1.1427287,1.2973427,-1.6397977,-1.1169714,-1.2277548,-0.1140456,1.1720158,1.3186432,0.8245352,-0.4004887,0.5336189,1.2921220,0.3766465,1.0772703,0.0275031,0.9616539
-0.6128511,0.1984196,1.6206487,-0.5186700,-1.1844062,1.2131411,1.4667923,-1.5508419,-0.1984588,-0.9811891,0.0839568,1.8223441,1.5947275,0.7906355,-0.3726711,0.8186310,1.0818075,0.7133372,1.4219997,0.4015516,1.2848531
-0.5598249,0.8856139,1.4482198,-0.7954232,-0.9835314,1.1367768,1.2396675,-1.5193233,-0.6336849,-1.1588273,-0.0836260,-0.5874726,1.7484601,0.9022672,-0.1749490,1.0040826,1.2015297,0.3203306,1.3760134,0.5752791,1.2218778
-0.6652740,0.7903454,1.3442012,-0.6075863,-1.1621056,1.1211767,1.4023210,-1.5761409,-0.2068794,-1.5578582,0.0706542,-0.4597302,1.7725334,0.9072112,-0.0548645,0.1729080,0.6761561,0.0994544,1.2256060,0.8224217,1.3004283
-0.3252172,0.3623846,1.4724523,-0.2064545,-0.8438246,0.2501456,1.0674255,-1.6401038,-0.4122888,-1.8515933,-0.0725781,0.3310270,1.4475367,0.8768485,0.1786376,0.1624118,0.9301487,0.6602262,1.6494513,0.8969159,0.9578475
-0.5553116,0.7536955,1.5145233,-0.0018181,-0.7443274,1.3426435,1.5816472,-1.5884119,-0.6230736,-1.6453540,0.0062802,-0.5868616,1.9372529,0.8309244,0.3211889,0.4460446,0.5143880,0.9081018,1.5183278,0.2115196,0.8327650
-0.2823842,0.6935688,2.3157158,0.1326877,-0.6368620,1.5502455,1.6587098,-1.6142366,-0.4817402,-1.0221282,-0.0596940,-0.0309209,1.6857193,1.3976445,0.0574165,-0.1891372,0.3509719,0.4617339,1.0538976,0.1941122,1.0929962
-0.7415955,0.4623105,2.0415664,-0.3621881,-1.3898854,1.0507648,0.8738802,-1.5876509,-0.7541192,-1.2986842,-0.3733279,0.3980342,1.3672686,1.0168810,-0.4073533,-0.1854375,0.3733147,0.2757864,1.2706404,0.3701536,0.8559319
-0.4518389,0.4108432,1.8416055,-0.1000822,-1.4038053,1.2967485,0.7174911,-1.6335038,-0.4507000,-1.2937229,-0.3630712,0.2127538,1.1152478,0.9513394,-0.5484637,-0.3199976,0.4431275,0.2351949,1.2676015,0.2458785,0.8440665
-0.7357001,0.0454927,1.3829272,-0.6577527,-1.1706550,1.3760420,0.7247698,-1.6137635,-0.5663033,-1.1756263,0.0664425,0.3560662,1.1030213,0.4289122,-1.0441536,-0.3725300,0.4360849,-0.2840416,0.7722385,0.1861381,0.5317820
-1.0512694,-0.1770580,0.9235896,-1.3159784,-1.5340877,0.6941434,0.5048706,-1.7075335,-1.1109458,-1.1505127,-0.2074201,0.6043271,0.8604648,0.1651398,-1.6861970,-1.0240350,-0.2924978,-0.3169568,0.2803921,-0.4682042,0.4831959
-1.2714456,0.0674673,0.9196464,-1.3481114,-1.7988636,0.0340525,0.0901764,-1.7630579,-1.3701283,-0.9483902,-0.4443504,-0.0599700,0.5045726,-0.0965776,-1.4986590,-0.8152365,-0.4345798,0.1279619,0.5281101,-0.1839858,0.8952740
-0.3245579,0.9048551,1.4040116,-0.2654187,-0.7186021,0.7762593,0.4130047,-1.6104190,-0.7806092,-0.7019674,-0.2960165,-1.0280498,0.7797745,0.3558167,-1.1824666,-0.6372404,-0.2042168,-0.2147216,0.4733199,-0.6220943,0.6568992
-0.2401207,0.7572420,1.2237127,-0.5784214,-0.8616394,0.5361814,0.4457539,-1.6368910,-0.2877817,-1.3185874,-0.4207578,-0.3656891,1.2172623,0.1754201,-0.9257510,-0.8368334,-0.7899284,-0.9093289,0.2191651,-0.7972108,-0.0470851
0.3651056,0.9473295,1.0816928,1.0298748,-0.8155684,0.4162797,0.3116140,-1.5981288,-0.6461695,-1.4405421,-0.4218078,-0.1143188,0.1144956,-0.3932841,-0.0958543,-0.6105195,-0.9097009,-0.7946946,0.3660283,-0.9396275,0.2088826
0.7048736,1.1689640,0.7590250,1.7381788,-0.7631469,0.5141957,-0.3781904,-1.3291619,-0.1768360,-1.2165776,-0.4005024,-1.3138716,-0.2622236,-0.2195793,0.1193701,-0.4471353,-0.9960920,-1.0801126,0.2978944,-0.9860086,0.3647643
0.6393255,0.8638840,0.9741103,1.5962681,0.0943891,0.8636688,-0.6063708,-1.3538418,0.0214363,-0.9252806,-0.4626973,-1.4494313,-0.2851553,-0.6266279,0.2098207,-0.2678680,-1.0092094,-1.1883568,0.6837107,-0.7223230,0.2026539
0.8319563,1.5887368,1.0354624,1.6826812,0.1074787,0.6110943,-1.1687266,-1.3330461,-0.0647861,-0.5899754,-0.6502176,-0.3961483,-0.1553465,-0.8294017,0.2141520,-0.2392331,-0.6634953,-1.1725794,0.7877555,-0.3982016,-0.2891569
0.8567816,1.0791481,0.6721492,1.2720048,-0.4800644,-0.0974982,-0.5470651,-1.2564355,-0.0614694,-0.7425487,-0.7994643,-0.6165835,0.0125613,-1.2715051,-0.2799494,-0.4685630,-1.3443874,-1.9090542,0.1355488,-1.1103488,-0.2623363
0.6856612,1.0358838,0.4079153,1.7158747,-0.4243153,0.0339566,-0.3490866,-1.2808052,-0.1786956,-0.1733089,-0.6570424,-1.2642552,-0.3304530,-1.3329645,-0.2095109,-0.2184144,-1.0269496,-1.4140979,-0.0189238,-0.7838386,0.1357517
0.5879995,0.5627152,0.1931410,1.4175797,-0.4641375,0.2004374,-0.6305653,-1.3672327,0.2023125,-0.4116850,-0.5307766,-0.6262466,-0.1261377,-0.8859713,0.2176605,-0.2615452,-0.4344213,-1.1562219,0.2781236,-0.6968724,0.4804142
0.5711251,0.4905605,0.0783146,1.4962540,-0.6030609,0.3804178,-0.2237838,-1.3994447,0.3470835,-0.5246398,-0.5408509,-0.6084999,0.2024155,-0.3467471,0.2788405,-0.1619578,-0.3563362,-0.8365389,0.6311263,-0.6036448,0.9902618
0.4364123,1.0986837,0.8000349,1.2051382,-0.1934047,0.9185266,-0.4422367,-1.2845538,0.4863556,-0.3305591,-0.2166161,-1.5912627,0.3402494,-0.0941145,0.1306620,0.0067301,-0.0156569,-0.3176166,1.0250916,-0.0139248,1.2095141
0.5746583,1.1061288,1.7268748,1.3882753,-0.2644678,0.5053630,-0.2649711,-1.4026283,0.6158483,-0.6151919,-0.4400991,-0.6980909,0.4874367,0.3347290,-0.0681717,0.0412086,-0.5784373,-0.6132226,0.4738206,-0.4605923,1.0500000
1.1491923,1.0125909,1.3335177,1.7981856,-0.7346774,0.8120190,-0.3512845,-1.3155067,0.8585783,-0.5127411,-0.7829213,-0.4750015,0.3530636,0.3684883,0.0086709,0.0497169,0.0188437,-0.6679938,0.4933504,-0.5175010,0.9853960
1.2096351,1.0814316,1.4202505,2.0558307,-0.0878845,1.1861033,-0.1360009,-1.1842502,1.0313857,-0.6224341,-0.5213001,-1.2912209,0.2280045,-0.0000163,0.1583488,-0.0834182,-0.4288549,-0.4019290,0.3935988,-0.8028897,0.3642949
1.0193442,1.0251437,1.3007005,1.9395862,-0.3199970,1.9096378,-0.3881039,-1.1285346,0.7461823,-0.8483379,-0.3382435,-0.7638687,0.2285003,-0.2938496,0.0118797,-0.4488675,0.0212893,-0.7324975,0.4645366,-0.6525657,0.2467084
1.1166099,1.2239738,1.2556748,1.4931414,-0.5566782,1.4327432,-0.2454725,-1.2229413,0.1869154,-0.5250883,-0.4335431,0.3187098,0.1024665,-0.8424696,-0.1332449,-0.3611330,-0.4578411,-0.4897413,0.1801627,-0.8221390,0.4343196
0.9178499,1.1569514,1.0944792,1.1795770,-0.3286170,1.2708464,-0.6513503,-1.2252548,0.3740810,-0.7572399,-0.4769920,-0.2892646,0.2680048,-0.5671086,0.0532305,-0.3357010,-0.3049621,-0.7038289,0.4250188,-0.6731752,0.4579535
0.9266017,1.0322937,1.0241688,0.9619802,-0.4848697,1.6878401,-0.6498498,-1.2309018,0.1787962,-0.5743148,-0.4383395,-0.2899286,0.2012886,-0.6340671,-0.4674851,-0.3789505,-0.1310849,-1.0748537,-0.0862097,-0.9629743,-0.1505277
0.5830001,1.3239583,0.7059088,0.9435008,-0.2703561,1.5029503,-1.1626906,-1.3934613,0.5515463,-0.5846026,-0.4879743,0.8274129,0.2146257,-0.6698409,-0.2045608,-0.2812575,-0.2784016,-1.0951047,-0.4385162,-0.7307329,0.5743227
0.6119600,0.9646688,0.4865319,0.9891552,-0.2171153,0.8260154,-1.4001837,-1.4138826,0.1473048,-0.5305697,-0.2674939,0.1755030,0.0470093,-0.5782050,-0.5778043,-0.1727640,0.0888805,-0.8765444,-0.1302281,-0.2908804,0.6098872
0.6973234,1.2244266,0.5847511,1.3219315,-0.5152395,0.6945681,-1.0602469,-1.4018983,0.3875385,-0.3375696,-0.0709216,-1.0969049,0.1753754,-0.9750880,-0.7666789,-0.4593742,0.0801034,-0.9264566,0.1293066,-0.2494337,0.3194597
0.6643100,0.5866318,0.5985339,1.0422595,-0.3765272,0.5954949,-1.1205403,-1.4147564,-0.0810092,-0.0266572,-0.1305096,0.0400121,0.6564001,-0.8283104,-0.4911123,0.1622267,0.2382387,-0.7747619,0.1277020,0.1667717,0.3402518
1.1772871,0.8161211,0.5815733,1.9936898,-0.4149463,0.5947112,0.1686630,-1.3768218,0.8289534,-0.4396979,-0.1784067,0.7292969,0.6804196,0.0147907,0.0871510,0.4178435,0.7109233,-0.4823942,1.0196744,0.5634853,0.8083494
1.0837849,0.9420413,0.8025744,1.8593457,-0.2160009,0.1853138,0.0447967,-1.3326579,1.1000944,-0.3007651,-0.1200906,-0.0577492,1.1677783,0.3254384,-0.0464912,0.4742855,1.1565851,-0.8662607,1.2437788,0.5909531,0.7447284
0.5519530,0.7684990,0.0242809,0.9468530,-0.0362167,0.1950203,-0.7901747,-1.3022226,0.6746123,0.0600896,0.0097343,-0.1026802,0.4478543,-0.3596631,-0.5308988,0.3848886,0.5697736,-0.9310379,0.5973673,0.5002052,0.4572856
0.1659528,0.1511218,-0.7135310,1.0961664,-0.3529233,0.8614358,-1.3989588,-1.3440720,0.2818948,-0.5633921,0.0475872,0.7894921,0.3273146,-0.9367068,-0.4086332,-0.1076163,0.5145527,-0.7302902,0.0758532,0.3326664,0.5581900
0.1883449,0.1518871,-0.0606026,0.3270056,-0.9217457,0.8522762,-1.3012394,-1.3523095,-0.7029014,-0.9897349,-0.0683580,0.3489028,0.7292714,-0.8511590,-0.3696840,-0.0277938,0.1304938,-0.9030483,0.6802799,0.2664061,0.6848100
0.3684587,0.6249093,-0.3588785,0.2816069,-1.1129500,1.2256026,-0.9787441,-1.4232440,-0.4408628,-1.0738648,-0.1711926,-0.5877439,0.3644648,-0.9349267,-0.4433332,-0.4388842,-0.6251338,-1.1932693,0.4268615,-0.3138667,0.2365234
0.1527661,0.5840651,0.1548887,0.5693173,-0.8387924,0.5136532,-0.9109991,-1.4730372,-0.1860355,-0.8892806,-0.3504256,-0.1214422,0.4092180,-0.6842963,-0.4860045,-0.9052448,-0.9338617,-1.0458683,0.1775742,-1.1038418,0.0045311
0.1168365,0.9905855,-0.1161213,0.7365192,-0.2692104,0.2054169,-1.1897726,-1.4288547,-0.3268979,-1.1245871,-0.3213307,-0.8830968,0.2565108,-1.0863905,-0.3214889,-0.3273047,-0.2941921,-0.9581492,0.6885393,-0.8011096,0.0881470
-0.0630118,0.6950062,-0.1470518,1.2212529,-0.3380246,0.6470197,-1.4459164,-1.4124328,-0.2948789,-0.9736282,-0.0861311,-1.9343847,0.1483043,-1.3290077,-0.2182683,0.3183793,-0.1122693,-1.0703971,0.1304977,-0.5783056,0.3114901
0.0203677,0.6359097,0.1412974,1.6970904,-0.4112534,0.5483509,-0.6453127,-1.3857342,0.4543937,-0.5959060,-0.1672228,-0.3069180,0.5897007,-0.8004698,0.3603582,0.1610102,-0.0185045,-0.4545232,0.7262210,0.1376420,0.5060146
0.5278648,0.4234319,-0.0946459,1.6858079,-0.9157323,0.3677601,-0.7504762,-1.3285306,0.5715603,-0.3798057,-0.4069982,0.0210361,-0.0916223,-0.6195441,0.4391413,-0.0475880,-0.3801010,-1.0366621,0.9475790,0.0434397,0.4787825
0.3383877,1.0153211,-0.2445649,1.7583427,-0.1113967,0.6935612,-1.2351431,-1.2928531,0.1120656,-0.3540929,-0.4007111,-1.4729017,0.0556554,-0.7616646,-0.0694392,-0.2468298,-0.2941254,-1.4339926,0.8674889,-0.4434678,-0.0021411
0.2889786,1.2478797,-0.0535329,1.1848457,-0.1329630,0.4480791,-1.6756887,-1.4204484,0.0204386,-0.6280675,-0.3397470,-1.1726011,0.0049161,-1.4560119,-0.1748219,-0.0663824,-0.3976051,-1.5825137,0.7320663,-0.7298992,-0.1769298
0.3033181,0.9396426,-0.1803290,1.3151807,-0.8557994,0.3796296,-1.4928163,-1.4084255,0.2270117,-1.1293792,-0.6421994,-0.2895231,-0.0759397,-1.7931576,-0.5601669,-0.6841935,-0.9582995,-1.8515420,0.5125361,-0.3442971,-0.3837520
0.2114479,1.3981552,-0.7590458,1.4373763,-0.7019908,0.4197229,-1.4463199,-1.3980335,-0.1005159,-1.4940610,-0.6103819,-0.7447312,-0.7663476,-1.7320200,-0.6964081,-0.5952895,-1.3567713,-1.7996005,0.1151479,-0.5891603,-0.4072147
0.2566130,1.4340342,-0.2862939,1.0224057,-0.1432832,0.6719921,-1.3504366,-1.3820847,0.2641815,-1.1824061,-0.0677682,-0.2751167,0.1128934,-1.6542579,-0.5161262,-0.2999884,-0.9212906,-1.7045505,0.2939960,-0.3474043,-0.0710074
0.0211767,0.6601962,-0.1488288,0.8890396,-0.1422012,0.6124798,-1.1103889,-1.3817058,0.0619402,-0.9400581,-0.0012263,0.6302696,0.6227711,-0.8720244,-0.4790134,-0.2649570,-0.3298872,-1.2988544,0.5202901,0.1623944,0.1038315
-0.1410438,0.5810845,-0.0747539,1.4932326,-0.5866106,-0.0038328,-1.0435704,-1.3664565,-0.3031219,-0.7096435,0.0384625,-0.3898253,-0.3298595,-1.1964500,-0.6219029,0.0101668,-0.7123452,-1.2301875,0.8531053,0.0910395,0.1356385
0.4018706,1.0256187,0.0262627,1.7451824,-0.4475269,0.4886529,-0.7495963,-1.3082093,0.2870343,-0.6986448,-0.3131538,-1.6222184,-0.0891608,-1.1913989,-0.2547387,0.0943139,-0.2810895,-1.3785965,0.9861437,0.2108413,0.3190473
0.9801849,1.0406681,0.5621734,1.9474367,-0.1378667,1.0614959,-0.5301725,-1.2805022,0.5982888,-0.5064666,-0.2330186,0.1789996,0.8286812,-1.0447372,0.0102240,0.5553973,-0.0129713,-0.8862532,1.2320514,0.9886298,0.4219734
0.6016155,1.2981813,1.1169401,1.9407167,0.2358554,1.4160640,-0.3097975,-1.2989820,0.6886701,-0.7267829,0.0399473,0.1144620,0.8639877,-0.9343055,0.3554802,0.3035707,-0.2225792,-0.4206407,1.4986914,0.7882001,0.4787898
0.6449195,1.6310101,1.0052606,2.4019961,0.2124006,1.4054179,0.0210349,-1.1723577,0.6086568,-0.8409524,-0.1071619,-1.1107968,1.2520505,-0.3602404,0.5583482,0.5259021,-0.6125258,-0.7111031,1.7700173,0.6360025,0.8125723
0.9355320,1.7973086,1.3062791,1.8272843,0.1058407,0.9955178,-0.3971701,-1.0996488,0.7061721,-1.0260895,-0.3842950,-0.4471003,0.9044179,-0.6393830,0.8593846,0.3860918,-0.2126219,-0.7915563,1.8171920,0.5596018,0.8259895
0.7301768,1.2765204,0.4014722,2.2033486,0.1804638,0.6341642,0.1802623,-1.1192042,1.3081826,-0.7667903,-0.5576679,0.1453537,1.0916727,-1.0035372,0.3220131,0.5418789,0.0555369,-0.5224757,1.7780261,0.6682760,0.6450177
0.6750709,1.2474793,0.0782746,2.4009762,-0.1049284,0.4114548,0.0348255,-0.9790645,1.2416627,-0.9531514,-0.4889831,-1.3524524,0.8793592,-1.1014587,-0.0261338,0.5650574,0.2085060,-0.9113426,0.9716119,0.5403016,0.6428811
0.7975569,1.5167478,0.2672028,1.8814355,-0.2742838,0.9181304,-0.6783538,-1.0057648,1.0761671,-0.9792159,-0.2896074,-1.1832141,1.1026766,-1.2771631,0.4966353,0.6599917,0.4734043,-1.0050548,1.1409992,0.5097511,0.4855850
0.6007062,1.5231385,-0.2103444,1.9873749,-0.3980019,0.6158304,-1.1421833,-1.0590751,1.0543163,-0.6965396,-0.2167186,-0.1431369,1.0037307,-1.1983142,0.3647149,0.4893825,0.3054103,-1.0888287,1.4188851,0.5968053,0.2141257
0.5226507,1.6436697,-0.5719384,2.2609580,-0.2650934,0.7994690,-0.7716746,-1.1607883,0.5317038,-0.7319487,-0.3045684,-0.8720396,0.4985586,-1.2770809,0.3391568,0.3471120,0.0550976,-0.7484875,1.8659825,0.2686249,-0.3185834
1.1778165,1.7774233,0.1989660,2.2859845,0.1424989,0.7443417,-0.5024605,-1.0730916,0.8136210,-0.5889045,-0.1122084,-1.7080795,-0.0876337,-0.9027544,0.2888506,-0.0364491,-0.2987315,-1.0798053,1.2039832,-0.2087601,-0.2310816
1.0572431,1.6045116,-0.1593968,2.2898657,0.2478815,0.2428918,-0.7158465,-1.1006476,0.6829768,-0.5792952,-0.2759752,-1.2771155,0.4991713,-1.2823139,-0.0850343,-0.2895608,-0.8122154,-1.1511345,0.5649803,-0.2916231,-0.3633225
1.0838697,1.8454773,0.0822442,2.8657274,0.2460938,0.2578981,-0.6106843,-1.1027485,1.0148594,-0.8506403,-0.4030238,-1.0260537,0.1940490,-1.5505613,0.2192574,-0.2656269,-0.5888644,-1.2135966,0.6269917,-0.5436783,-0.8046317
1.2439637,1.9121368,0.3374633,3.4046271,-0.0626348,0.1879884,-0.3292897,-0.9533309,1.1237789,-0.6085370,-0.6553747,-2.2841628,0.2828633,-1.0945864,0.6215751,-0.0614765,-0.7010880,-1.1365761,0.9650278,-0.7818201,-0.8559605
1.2050965,1.8826439,0.5377303,3.3915713,-0.1652710,0.9891687,-0.4561133,-0.9109346,1.4089068,-0.5371099,-0.5505053,-1.9812641,0.0061809,-0.8459467,0.0402544,-0.4531438,-0.9595835,-1.3156551,0.3660484,-0.6942336,-0.7302235
1.1160046,1.5167905,1.2569566,2.3143601,-0.2315515,0.9338611,-0.3944209,-0.9679179,1.3213447,-0.9356882,-0.3159615,-0.4367389,0.0178964,-0.6854628,-0.3469385,-0.7121883,-0.8002704,-1.1506940,0.1805042,-0.8600537,-0.4356282
0.8495651,1.8458719,0.8256472,2.7115934,0.5886455,0.6874424,-0.7333158,-1.0363688,1.1393735,-0.7293539,-0.2737450,-0.7113996,-0.1525950,-1.2920687,0.2781203,-0.4480957,-0.8328840,-1.3078872,0.7112598,-0.7329279,-0.4518135
1.0779661,2.2314894,0.3457914,2.3287110,0.3311984,0.2624360,-0.9323684,-1.0756202,1.2829894,-0.3246714,-0.5216767,-0.8204477,0.0896638,-1.3312974,-0.2304784,-0.0868998,-0.8478106,-1.2821109,0.4030290,-0.4637868,-0.5152534
1.1990032,1.7919062,0.5028341,1.6691791,0.0757831,0.7300439,-0.5279130,-1.1116462,1.0619510,-0.6121909,-0.3444142,-0.9161440,0.2398673,-1.7325612,-0.3992433,-0.3994767,-0.6171282,-1.1121737,0.3944791,-0.2745353,0.0441052
1.5871986,2.4255404,0.9871677,2.2320604,0.4250886,1.5597854,0.2888668,-1.0418711,0.3937516,-0.8211841,-0.2239852,-0.9334685,1.0926554,-0.6894003,-0.3902787,-0.0231134,0.1807041,-0.0769526,0.6271274,0.3240502,0.3155932
1.9642954,2.8843770,1.9245089,3.0952349,0.8639128,1.0147712,1.0932879,-1.0405667,1.0816926,-0.8773450,-0.1434243,-0.7104540,1.3984904,-0.0863152,-0.0956165,0.2160259,0.0995592,-0.0220619,0.7934265,0.0552392,0.6066279
1.7934638,2.8021491,2.1855481,2.4743304,0.1782801,1.5714563,0.9833891,-0.9492072,0.7331543,-0.9684939,-0.5053138,-0.3810800,1.5205894,0.3779177,-0.4491920,-0.5133749,-0.4450794,-0.6850586,0.0378213,-0.3774330,0.2027085
1.3428242,2.6703241,2.1383109,1.7132549,0.1008867,1.4795356,1.3349991,-1.1820098,-0.0941538,-1.7343575,-1.0448714,-1.2750136,0.8212181,0.0954084,-0.4424195,-0.9965086,-1.1150440,-0.5328385,-0.0962390,-0.7197508,-0.2883683
1.3596210,3.0740712,1.9642614,1.5477650,0.3366947,0.8512514,0.8029393,-1.1475599,0.5340713,-1.8440197,-0.7936323,-2.0601087,0.8426493,-0.0604102,-0.2423553,-0.4098727,-0.9789135,-0.7587261,0.4744891,-0.8535665,-0.6887463
1.4696057,2.2718542,1.7087129,1.5691073,0.5093693,0.7813098,-0.0378020,-1.1344330,0.0092682,-1.3667184,-0.6484250,-1.6319212,0.2497158,-0.7229219,-0.2776338,-0.3670129,-0.8430315,-0.8797274,0.1902736,-0.4602435,-0.7384329
1.4727441,2.3420265,1.1718184,1.2660955,0.2720651,1.0282060,0.3669529,-1.1351002,-0.7102680,-1.3461703,-0.5494220,-0.5868534,0.5996755,-0.3694553,-0.5360105,-0.6333281,-0.7137528,-1.1264749,0.1806723,-0.5090019,-0.6030128
1.7077487,2.4244642,1.0209551,0.9328395,0.1231004,1.1871630,-0.0914595,-1.1048952,0.0717513,-1.3451455,-0.3424425,-1.6364616,0.4303378,-0.5388444,-0.7408004,-0.8943106,-0.2613165,-1.0873883,-0.1356402,-0.7315161,-0.4022770
1.7359371,2.2827930,1.2991521,1.2388358,0.0208052,1.4395235,0.2684014,-1.1477133,0.7260404,-1.1227260,-0.3277577,-1.8161613,0.9092685,-0.6818899,-1.0938510,-0.6736503,0.1339560,-1.1137114,-0.0269916,-0.2210893,-0.0881300
1.6059651,2.7670381,2.0500700,1.3323624,-0.3316931,1.8740751,0.8692294,-0.9974282,0.9392523,-1.0787978,-0.3784615,-0.3707484,0.9912999,-0.3962990,-0.3840707,-0.3594294,-0.1592278,-0.7299964,-0.1461674,-0.3879612,0.0665119
1.3963231,2.6737046,2.4663560,0.9587702,-0.4551369,1.7110939,0.9051796,-1.0920738,0.3534263,-0.9662386,-0.7209218,-0.5232084,1.0672299,0.3736445,-0.5779465,-0.3275795,0.4273396,-0.6149985,0.0222042,-0.2533590,0.5319095
1.2366310,2.7181668,1.7565917,1.8027769,-0.2051938,2.1434114,1.0538049,-1.1385274,-0.0995961,-0.6161640,-0.2940070,-1.7418411,1.8477249,0.3058356,-0.3221130,-0.1737207,0.8600281,-0.3361564,0.3629548,0.1200787,0.5559391
1.2539840,2.7398922,2.0712836,2.0107472,0.0830708,1.9222294,0.8450517,-1.0500280,0.4310295,-0.3514445,-0.1963937,-0.2353066,2.1657827,0.3667568,-0.0326384,-0.0310297,0.6729989,-0.1989755,0.6407390,0.4626699,0.7616151
1.3004068,2.5191929,2.1875703,1.1070988,0.3823076,1.7165118,0.9641884,-1.0159689,0.9081329,-0.9116672,-0.4893785,0.0134579,1.8365140,0.3754154,-0.4893063,-0.3291405,-0.0255546,-0.3939689,0.2692325,0.0429333,0.5129701
1.0476466,2.5620549,1.9236482,0.8355952,0.1387546,1.1734071,0.8817180,-1.0134779,0.3624081,-0.7122486,-0.3557082,-0.9875193,1.5804083,0.5559791,-0.6572246,-0.4230923,0.2777047,-1.0134119,0.4207939,0.1672615,0.1513943
1.3045262,2.2413187,1.8742552,1.0883037,-0.0141066,1.1001239,0.8784798,-1.0597036,0.3366213,-0.9409122,-0.1353262,0.0505136,1.3988342,0.1273680,-0.5930185,-0.2329579,0.1020903,-0.9596239,0.3961600,0.3851660,-0.1423590
0.9752538,2.0116186,2.1004772,1.0701143,-0.2394318,1.2226188,0.7348433,-1.0813526,0.2491895,-1.3398985,-0.2357831,1.3502272,1.4225160,-0.1002786,-0.3036335,-0.7573669,-0.0121278,-1.2516599,0.2677979,0.2809581,-0.1429326
0.9292054,1.5862448,1.7610782,0.5191553,-0.4616377,1.6807808,0.2760382,-1.1377721,-0.0026939,-1.1030847,-0.1971532,0.3700350,1.0870608,-0.4608317,-0.6237949,-0.7614504,-0.2682473,-1.2603006,0.3958829,-0.1618099,-0.1936937
0.8854299,1.4473195,1.2367231,0.0679619,-0.4670051,0.9620228,0.2028992,-1.2146186,-0.0637209,-1.1403069,-0.3834215,-0.8398318,1.1350255,-0.5462630,-0.6894514,-0.7958046,-0.5300660,-1.6540362,0.0929267,-0.6825910,-0.8638766
0.6470369,1.3892697,1.3181117,0.2375357,-0.4054865,0.7540358,-0.3182938,-1.1739855,-0.6644642,-1.4289378,-0.4436516,-0.1073515,1.0003257,-0.7325643,-0.0363056,-0.6465361,-0.7611182,-2.1342368,0.0575185,-0.8941955,-1.1968299
0.4711255,1.2987108,1.2733750,-0.1313393,-0.8788200,0.1364945,-0.3957148,-0.9872010,-0.2112353,-1.0855794,-0.3777466,-0.8738658,0.3575520,-0.9420553,-0.0295917,-0.7047212,-1.2813175,-1.6033243,0.0461944,-0.8806157,-1.1087202
0.5383193,1.3933671,0.9510352,0.3382817,-0.5502555,0.2350023,0.1749326,-0.9411597,0.1151109,-1.4708458,-0.4456242,-1.4475405,0.9960194,-0.8410361,-0.5891691,-0.7598082,-0.8722596,-1.6629512,0.1990945,-1.0680587,-0.8202116
0.5787821,1.6421094,1.4350899,0.8584847,-0.8449905,0.5343014,0.3871992,-1.0481359,-0.0190585,-1.3398976,-0.4414202,-0.5239466,1.1320084,-0.3255364,-0.5674108,-0.6470000,-1.6824915,-1.4208611,-0.4496120,-1.0269866,-0.9232670
0.4876461,1.7242013,1.4148846,0.5445057,-0.7769361,0.6091772,0.5820935,-1.1146260,0.5162575,-1.2226512,-0.3794087,-0.1094583,1.3611859,-0.0726612,-0.2131472,-0.7991399,-1.1577312,-0.6819900,-0.7207382,-1.0744838,-0.4654052
0.4536081,1.2767547,1.9348283,0.1805947,-0.4046175,0.7945103,1.1946908,-1.0242449,-0.1582033,-1.0666651,-0.3537912,-0.8477193,1.5903851,0.5001453,-0.0345044,-0.7499454,-0.4414625,-0.3221311,-0.1444612,-0.5126871,-0.2114813
0.4939318,1.0754445,1.7622993,-0.2732377,-0.6102017,0.6099771,1.1326376,-1.0882359,-0.5348526,-0.7950465,-0.4084415,0.0516767,1.8900604,1.1648967,-0.7755494,-0.3267218,-0.2126467,-0.1436640,-0.2491488,-0.3359127,-0.0491771
0.4264431,1.3112277,0.7443172,-0.6073793,-1.0750805,1.1885194,1.1740606,-1.1698521,-0.4984119,-1.0976229,-0.4688581,0.9794968,1.3292193,0.6180388,-0.7202560,-0.8309070,-0.5625259,-0.4542708,-1.0123590,-0.6861691,-0.2410953
0.1535253,1.4789476,0.8260646,0.1185348,-0.9027269,1.3028749,0.9068521,-1.0350233,-0.4967173,-1.2831954,-0.1923067,-0.9300695,1.0109693,0.0812825,-0.1915904,-0.5675580,-0.6581497,-0.5263225,-0.4145048,-0.5138869,0.1047681
0.0701613,1.7063929,0.9033529,-0.1338211,-0.2532225,1.4768163,0.7265189,-0.9795013,-0.1679629,-1.2963692,-0.1447503,-1.3470836,1.3090426,-0.1011984,0.1389780,-0.1141822,-0.0304971,-0.3764107,0.3602251,0.2023613,0.5160559
0.1050719,1.4266216,1.4360770,-0.1318532,-0.2499927,1.5979806,1.2873324,-1.0485576,-0.0368050,-1.2838763,-0.0373890,-0.3123811,1.3804179,0.5776047,0.0937049,0.1312991,-0.2934918,0.2294467,0.7505659,0.6346636,1.0854802
0.2103260,1.4482069,1.6191231,0.1571090,-0.3414695,0.9647543,1.7628462,-1.0103358,0.1926748,-1.1314071,-0.0948938,-0.0781216,2.0859449,1.2048547,0.2842592,0.2988751,0.1723785,0.6335087,0.7404382,0.5438160,1.1886981
0.7468041,1.7171290,1.6821076,0.2739934,-0.1657316,1.5765142,1.6993827,-0.9381531,0.5595843,-1.0575224,-0.0595266,-0.7294886,2.1528401,1.6216168,0.3300011,0.1218489,0.1873379,0.7780111,1.2940342,0.6959141,1.0220907
0.5817961,1.6678042,2.6462655,0.7827274,-0.2764374,2.3194165,1.6582991,-0.8593588,1.1554103,-0.8190377,-0.2598662,-0.2214215,2.1865485,2.1090026,0.7091035,-0.0186551,0.2067644,0.9420744,1.3367039,0.3617685,0.7357139
0.3050352,1.2703217,2.7437041,1.5246118,-0.5273195,2.1326141,1.5471395,-0.9182703,0.2787710,-0.9609452,-0.3296337,-0.6552754,2.3044465,1.4296345,0.4648444,-0.3559737,0.0434325,0.2640383,1.1506158,-0.0925402,0.5211772
0.3882540,1.8172183,2.1116304,1.3744103,-0.4491799,1.8070767,1.3568047,-0.7367951,0.5674828,-1.1936600,-0.5210530,-0.9736326,1.5826130,0.8262720,1.1598457,-0.0742244,0.2282379,-0.0370586,1.3801918,0.2111410,0.3008733
0.5153908,1.5517731,1.9186568,1.1704129,-0.1458155,1.6512471,0.9325538,-0.6817305,1.1367633,-0.8613678,-0.2965800,-0.0982657,1.3065169,0.8119541,0.7503758,0.3897777,0.0751919,-0.3799018,1.1086346,0.4586984,0.3142630
0.3135491,1.5305226,1.7021835,0.3298540,0.1038053,0.8008966,0.7648195,-0.7585080,1.1782231,-1.0337621,-0.2816288,0.4590946,1.5817425,0.9050668,0.8003911,-0.1775510,-0.0759574,-0.3840408,0.9798656,-0.0462290,0.1451147
0.2646360,1.6313530,1.0504854,0.2379102,-0.1810708,1.2021863,0.4716126,-0.7410536,0.4336833,-1.4527433,-0.1909616,-0.8492824,0.6932433,0.4666939,0.7012479,-0.7837834,-1.1720831,-0.5964327,0.8654106,-0.5554215,-0.1355408
0.4756754,1.6936722,1.3006649,0.2612357,-0.5330088,1.4033701,0.3320620,-0.8513512,-0.1446603,-1.3669848,-0.2130415,-0.9534545,0.0678161,0.2416176,0.4034367,-0.9627717,-1.1975663,-0.8146528,0.6823624,-1.0170228,-0.2742134
0.5309861,1.3301805,1.7477428,0.5585630,-0.4884307,1.4047425,0.7233293,-0.9240000,0.0672723,-1.6161956,-0.5008512,0.1924613,0.7158079,0.5717054,0.1545316,-0.4670857,-1.0326084,-0.3120252,0.7268951,-0.4733605,-0.0774193
0.5333434,1.1653498,1.3388773,0.5173452,-0.1559764,0.9576173,0.8040002,-0.8410061,0.4483645,-1.2598065,-0.4455139,0.0713174,1.0964919,0.5149382,0.4827861,-0.1457387,-0.2521362,-0.3912690,0.8025405,-0.0737883,0.0960195
0.4784409,1.7112765,1.0856658,1.3979983,0.1330284,0.9011099,0.5211103,-0.7919021,1.2071784,-1.2590288,-0.2708793,-1.0012310,0.9495007,0.2217471,0.9429208,0.5727648,0.3118206,-0.5604033,1.2973608,0.4559651,0.6660425
0.3543508,1.0953575,1.1310633,0.9321283,-0.0140144,0.6802005,0.2872911,-0.8071936,1.0465783,-0.6242545,-0.2884106,0.3205383,0.8996568,-0.1771491,0.7364415,0.4714847,0.3073115,-0.7557132,1.2679297,0.7031597,0.4363230
-0.0728384,0.9548949,1.1413523,-0.0211941,-0.2687531,0.7249159,0.0194224,-0.8692238,0.5743174,-0.7546794,-0.0018190,1.1115732,0.6121042,-0.1604643,0.2398700,0.5734068,-0.0068762,-0.3674676,1.1305653,0.6822733,0.8206742
-0.5051549,0.9712033,1.4190979,-0.4213773,0.0568533,1.2996099,0.0268778,-0.8698751,0.3676918,-0.8784390,0.1724033,-0.1894980,0.4863007,-0.3087291,0.2132280,0.3800597,0.5376409,-0.5282197,0.8191573,0.7286261,0.4953826
-0.2712831,0.6268325,1.0473846,-0.6417868,-0.4156936,1.2010734,-0.0490919,-0.8857251,-0.1539697,-0.8385691,0.0890665,-0.0255194,0.8071281,-0.1783612,0.0601433,-0.0567936,0.2248301,-0.5687968,0.8470710,0.5212604,0.3253147
-0.4725701,0.4570497,1.3222435,-0.3926907,-0.5253409,0.6810378,-0.2987323,-1.0564176,-0.7472045,-1.1449777,-0.1300546,0.7488997,1.0076269,-0.0256422,-0.3945398,-0.3421692,-0.4958417,-0.5880937,0.8202430,0.3451711,0.1117411
-0.2024549,0.9762711,1.6433996,0.2293486,-0.6524628,1.3187785,0.0852510,-0.9335846,-0.1436251,-1.2094036,-0.2851716,-0.8369507,1.2094419,-0.0835758,0.0198733,-0.5455690,0.0116795,-0.5538059,1.1869226,0.0615817,0.2388184
0.0994309,0.8087060,1.4063884,-0.5667782,-0.7929567,1.5400658,0.2020090,-0.9011498,0.0315150,-1.3489002,-0.0369955,-0.6435317,1.0278672,0.0718024,0.0432253,-0.4021367,-0.1941631,-0.6190116,0.3786897,-0.2630344,0.0783531
-0.2930466,0.8833306,0.6063634,-0.9734346,-1.0447242,1.1726938,-0.4011772,-1.0605769,-0.6926624,-1.2144705,-0.3782480,0.2786823,0.8820125,-0.1040438,-0.2585877,-0.5937545,-0.7250231,-1.0983231,0.2208183,-0.3390183,-0.0688979
-0.3965553,0.9016390,0.4390493,-0.5235441,-0.7285559,1.4288400,-0.3843555,-0.9761899,-0.6871914,-1.5230129,-0.3989763,0.1373919,0.3626052,-0.3460559,-0.5506209,-0.5146468,-0.9848092,-1.4584820,0.3430065,-0.4366142,-0.0178777
-0.4817603,0.8720525,0.2455602,-1.4849603,-0.3824936,1.0757610,-0.7561448,-1.0083809,-1.0249188,-1.8496662,-0.4963490,-0.9012122,-0.1582330,-0.8168243,-1.0958831,-0.5244755,-0.9597691,-1.8963646,-0.1711958,-0.1264691,-0.6255236
-0.6013139,0.8465893,0.1221771,-1.5153911,-0.4006338,0.9560339,-1.2681537,-1.1811970,-1.3694518,-1.3880378,-0.5809590,-0.3206964,-0.4869360,-1.1479125,-1.2883555,-0.4259849,-1.0689629,-1.4423208,-0.5479509,-0.3928026,-0.6411350
-0.5415087,0.3911116,0.4373813,-1.1693133,-1.0712095,0.5745294,-1.1513667,-1.2196361,-1.1871538,-1.2938378,-0.5966411,0.0088873,-0.5727556,-1.4695187,-1.2066805,-0.5039790,-1.0340345,-1.3356451,-0.6772189,-0.5080276,-0.8096933
-0.3886414,0.7213855,0.4521354,-0.8407872,-0.8585500,0.8809953,-0.5862846,-0.9377370,-0.9153362,-1.2373903,-0.5088797,-0.6688551,-0.1871364,-1.6307087,-0.6001548,-0.5458489,-0.8031857,-1.1877186,-0.1885087,-0.5601866,-0.5732262
-0.5492894,0.4877636,0.7949162,-1.2632085,-0.5407107,0.6171701,0.0815989,-0.9241500,-0.8089192,-1.0676215,-0.3904640,-0.4808961,0.2597172,-0.9675579,-0.8735810,-0.3289383,-0.6860017,-0.7012790,0.1858501,-0.2894247,-0.2117437
0.0861586,0.4360100,0.8699546,-0.6764910,-0.4514623,1.3829588,0.1251778,-1.0533377,-0.3654390,-1.2724739,-0.6467239,0.5642789,0.4426194,-0.4199847,-0.3581086,0.0395966,-0.7592074,-0.7515087,0.7851943,0.2028617,0.2627912
0.1601496,1.0601889,0.6037892,-0.3141446,-0.5609156,1.0676444,-0.0522364,-0.9177305,0.0802813,-1.0391943,-0.3303344,-0.1075347,0.4639162,-0.0983269,0.0919732,-0.1293110,-0.4222482,-0.8915099,0.9219610,0.2193874,0.4767287
-0.3439499,0.8902956,0.7933670,-0.0068265,-0.1772340,0.6508404,-0.1811617,-0.8258574,0.1521384,-1.2369174,-0.4636487,-0.2561947,0.3339939,-0.3295457,-0.4565178,-0.0901884,-0.0588109,-1.0703970,0.3462847,-0.0617458,0.2821336
-0.4598013,0.0917273,0.4592437,-0.0954246,-0.3703957,0.2375613,-0.0451907,-0.8467090,-0.0768794,-0.8395795,-0.6800102,0.3370533,0.3136984,-0.8639891,-0.5368721,-0.2278077,-0.4611661,-0.8316268,0.4949894,-0.2425157,0.1526778
-0.2494435,0.5003750,0.1673032,-0.2300436,-0.5504271,0.6472394,-0.3292110,-0.9629852,0.0219390,-1.3856446,-0.6240541,-0.1085967,-0.0418378,-1.0781713,-0.4072935,-0.1815945,-0.4874391,-1.0176269,0.3946928,-0.1596183,0.0475415
-0.0753176,0.2819797,0.1634949,-0.5351804,-0.2768734,0.3544810,-1.0993841,-0.9378574,0.0093634,-1.3974867,-0.3900371,-0.8625690,-0.0126562,-1.0317318,-1.0248227,-0.7354315,-0.1225840,-0.8547893,0.1742139,-0.6839506,-0.0457095
-0.5371040,-0.1299478,-0.1574377,-1.3926023,-0.5199603,0.3448757,-1.1066228,-0.9984138,-0.7042757,-1.6727949,-0.6396173,-0.4957307,-0.0573260,-1.3882178,-1.1901373,-1.1838343,-0.3769385,-0.8610198,-0.1711281,-0.3884694,-0.3338003
-0.6359169,0.5906765,0.1984639,-1.8945652,-0.4718963,1.1014022,-0.3887263,-0.9087628,-0.5099733,-1.5664988,-0.7446460,-0.2167260,0.2702750,-0.9013883,-1.4059138,-1.0784495,-0.4687059,-1.1016105,-0.2288270,-0.5050684,-0.1815074
-0.5567938,0.2527319,0.2336643,-1.4182868,-0.7498590,0.7714206,-0.3226702,-0.8848721,-1.0698490,-1.4256023,-0.4220890,-1.0805043,0.2368193,-0.8950930,-0.6486008,-1.1229057,-0.9752364,-0.9552156,0.3552850,-0.2332976,0.2450494
-0.7770997,0.1099911,-0.0444911,-0.5458677,-0.5174896,0.4919347,-1.0391494,-1.0040021,-0.9731961,-1.2882388,-0.3730232,-1.1578786,0.2235561,-1.1022139,-0.7630609,-0.7855791,-0.7997144,-0.9984157,-0.0131278,-0.4177788,-0.3270250
-0.7703751,0.0991885,-0.7271893,-0.6529408,-0.4474396,-0.2099707,-1.2844537,-1.0452312,-0.5296274,-1.5717181,-0.6167836,-0.1044955,0.1506148,-1.1724496,-1.1982152,-0.7473807,-1.2697051,-1.2435149,-0.8166327,-0.4572759,-0.5697673
-1.0394132,-0.2494180,-1.5233138,-1.5171099,-0.6981702,-0.5836861,-1.6151621,-1.0104554,-0.7292293,-2.0557199,-0.1793617,-1.6669539,-0.2215012,-1.5233042,-1.1475612,-1.1231008,-0.9688312,-1.5692064,-0.9054747,-0.7305291,-0.8200511
-1.1162781,-0.4301550,-0.6097561,-1.1619587,-0.2495764,0.0439294,-1.1873108,-1.0325788,-0.8468003,-2.0581336,-0.1831828,-1.9729053,-0.0449346,-1.4626508,-0.8848647,-0.7952330,-0.3364217,-1.3798931,-1.0152360,-1.0374877,-1.1526691
-1.2195987,-0.4069052,-0.3510076,-1.0379448,-0.8545087,0.8692632,-1.0482520,-0.9925483,-0.4691251,-1.8120364,-0.2918206,-0.4372226,0.4417993,-1.2105793,-0.9948653,-0.7562352,-0.6825003,-1.3860276,-0.9134128,-0.8468039,-0.8844731
-1.0756471,0.1163034,-0.1958124,-0.6239069,-0.8860661,0.3669364,-1.1576434,-0.9213257,-1.0006571,-1.7366042,-0.0843588,-0.2285176,-0.4081377,-1.3367815,-0.7893282,-0.9148579,-0.6153992,-1.6933413,-0.6575603,-1.0325174,-0.6169956
-0.8739759,0.1504173,-0.1091553,-0.7967740,-0.4932106,0.9060691,-0.8842767,-0.8529943,-1.0998677,-1.2509077,0.0436895,-0.7615471,-0.1612595,-1.5619206,-0.6985458,-0.7110376,0.0001196,-1.7791647,-0.5823879,-0.8341717,-0.4881782
-1.3126951,-0.1407701,-0.2584894,-1.5106584,-1.0587864,0.4177375,-1.4969187,-0.9199367,-0.6778230,-1.6324929,0.0944154,0.2357274,0.5782315,-1.6272523,-1.2715108,-0.8955027,-0.0644034,-1.8505571,-0.8682907,-0.5333218,-0.5336382
-1.2420932,-0.3255565,0.1096987,-1.3705488,-0.8774641,0.2108552,-1.6609707,-1.0376204,-1.0621387,-1.9831291,-0.0791661,1.0175896,0.2785707,-1.4770466,-1.7979503,-0.8893695,-0.8046250,-1.5977423,-0.5943069,-0.9315392,-0.1570318
-1.1955642,-0.1210370,-0.2400315,-1.5815028,-0.8415756,0.9241682,-1.4044489,-1.1421722,-1.2024565,-2.0686183,-0.0630809,-0.4430204,0.2580759,-1.0411268,-1.4331191,-0.7788278,-0.9404995,-1.6322155,-0.7760942,-0.4926985,0.1379614
-1.0025797,-0.0176287,0.1844990,-2.2193329,-1.0361208,0.8850700,-1.3981255,-1.0861834,-1.0650102,-1.5706636,-0.0714239,-0.1235735,0.4314750,-1.0293235,-1.4568744,-0.7128332,-0.3300866,-1.2932417,-0.9328212,-0.1599179,0.0474813
-0.8267643,-0.3685186,0.2087690,-1.9922682,-0.9025288,1.0488596,-0.9866459,-0.9368274,-0.6131953,-1.6811713,-0.1522308,0.5682997,0.6330900,-0.9575704,-1.8759187,-0.9686729,-0.3237300,-1.0039692,-0.7072678,-0.4041052,0.4088982
-0.9404394,-0.6277136,-0.1600818,-2.0837779,-0.8521464,0.6393653,-1.0114473,-0.8787069,-0.9011438,-1.9340885,-0.3525251,-0.0885852,0.6230354,-1.1487414,-1.8425484,-0.7011956,-0.4694291,-1.0093542,-0.5823589,-0.7115796,0.3987784
-1.1025082,-0.2417175,-0.2477223,-1.6832651,-0.9081886,1.3968580,-1.1343275,-0.9354582,-0.9449352,-1.6967025,-0.2461756,0.2622508,0.1178068,-1.2487550,-1.5286902,-1.0033419,-0.0599823,-1.1461505,-0.4689033,-0.9611627,0.0312894
-1.2311842,-0.2686671,-0.3161757,-1.4239061,-1.3814969,1.2260798,-1.3018302,-1.0061105,-1.0497115,-1.2098441,-0.2972596,0.5392733,0.1181287,-1.4207401,-0.9007686,-1.0966823,-0.5468675,-1.0644842,-0.5311228,-0.9989485,-0.1865566
-0.8553869,-0.5073746,-0.0649794,-2.0025744,-1.1453431,0.9122695,-1.5991579,-1.0620739,-0.8441727,-1.7472560,-0.3124036,-0.0779451,-0.0552430,-1.4667640,-1.2036489,-1.0619082,-0.6593840,-1.7940955,-0.6493138,-1.4960204,-0.8784156
-1.1435767,-0.3647898,-0.4369902,-2.3024619,-1.0461998,0.2313748,-2.0909524,-1.1185696,-1.2784796,-1.6807736,-0.2084125,-1.3078104,-0.1748200,-1.9153395,-1.3433974,-1.2294483,-0.7990075,-2.3622069,-1.1767427,-1.4889532,-1.0701576
-1.2162151,-0.5148848,-0.2487590,-2.3512154,-1.1040341,0.2134049,-1.7527827,-1.0920595,-1.5204592,-1.7141508,-0.5796379,-0.5622722,-0.2124029,-1.8768885,-1.9617881,-1.3251657,-1.6870383,-2.1712351,-1.0749286,-1.9927692,-1.0063792
-0.8999745,-0.6665288,-0.3036778,-1.8041091,-0.9294053,0.3555581,-1.5828745,-1.1440459,-1.9352723,-1.7305460,-0.9278459,-0.7443836,0.1691959,-1.3691567,-1.5387018,-1.5646536,-1.7178825,-1.6465720,-0.9745155,-1.4226019,-1.0589393
-0.7308706,-0.1400748,-0.5706177,-1.1086890,-0.4898951,0.3204261,-0.8234309,-1.0693125,-1.7325720,-1.8554127,-0.8672259,-1.7110931,-0.0171196,-1.2858168,-0.5390117,-1.3668581,-0.9594431,-0.7840927,-0.4716356,-0.9925613,-0.0435005
-0.4661917,0.0419734,0.1815119,-0.6256702,-0.6217195,0.8552188,-1.2765018,-0.8257115,-1.1128018,-1.5783808,-0.8046946,-1.6496915,0.4253573,-1.3836457,-0.0327403,-0.7987865,-0.3466071,-1.0135385,-0.5369653,-0.5484460,-0.1076825
-0.3954099,-0.0459165,0.1965314,-0.8830542,-0.8317367,1.5821862,-1.6865305,-0.8498650,-0.6102640,-1.2299664,-0.8383121,-1.0558391,0.5281012,-0.8906011,-0.6301116,-0.5540065,-0.2830273,-1.5480645,-0.4617950,-0.2027300,-0.2219126
-0.7349229,0.2506054,-0.1372324,-0.9033981,-0.5984899,0.5303852,-1.6839591,-0.8688527,-0.6820119,-1.5123013,-0.5586778,-1.2877188,-0.0430893,-1.5958976,-0.8947974,-0.9451300,-0.2962510,-1.4836516,0.0280246,-0.6104525,-0.1838803
-0.6277130,0.3587589,0.8533306,-0.4928411,-0.4681266,1.3136041,-0.8362476,-0.7262712,-0.4750169,-1.3406289,-0.3051160,-1.8913381,0.4848875,-1.6521981,-0.1037261,-0.3507676,0.0004189,-0.9213976,0.6554072,-0.3291054,0.2033093
-0.7846338,0.0437415,0.9029910,-0.4324893,-0.4205830,1.2269955,-0.9272360,-0.7935678,-0.2991607,-1.1379508,-0.2883395,-0.3185343,0.7665225,-1.3276218,-0.1315802,-0.5326176,0.4226443,-0.3780296,0.4457743,0.2647518,0.7101130
-1.0583961,0.0004293,0.0288851,-0.4033228,-0.6703628,0.5627261,-0.7304383,-0.8142206,-1.1240522,-1.0958090,-0.3962502,-0.8480842,0.4909590,-1.0430878,-0.2010275,-0.6959059,0.9494508,-0.2157032,0.5676373,-0.1395784,0.5343943
-0.7383350,0.3823651,0.7200152,-0.1906230,-0.6480278,1.3063766,-0.0503679,-0.6848877,-0.5817602,-1.3781683,-0.3651153,-0.4236509,0.9472015,-0.9384390,-0.0019298,-0.5449118,0.6146412,-0.0001490,0.7217504,0.6096359,0.9394159
-0.6531450,-0.3356212,0.6410778,-0.1198127,-0.4662098,1.2129523,-0.0695858,-0.6811506,-0.2528377,-1.1005825,-0.1958752,0.4598744,1.5994223,-0.4515353,0.0642121,-0.7760847,0.4083390,-0.1925281,0.5672900,0.5123317,0.9750395
-0.5932047,-0.2417365,0.3335991,0.4941133,-0.7204958,1.2707356,-0.0894511,-0.7457246,-0.6306553,-0.8217520,-0.2954927,0.8393558,1.6862445,-0.4988197,-0.1451804,-0.6522433,0.8739699,0.1475051,0.4829764,0.1486028,1.0010291
-0.5212517,0.0766778,-0.3921755,0.3043147,-0.0623110,0.8175719,-0.0675347,-0.7321190,-0.2487397,-1.0337100,-0.0398314,0.0073620,1.4876758,-0.4337424,-0.2911870,-0.4149556,0.7374414,0.1172676,0.4007055,0.2659583,0.6599798
-0.6107065,-0.2810501,-0.3720862,-0.2892847,-0.5490801,1.0141360,-0.9368539,-0.6482693,0.1728820,-0.8451747,-0.0768584,-0.2332235,0.9571608,-0.3415042,-0.0454635,-0.3619092,1.1743494,-0.4581280,0.0740871,-0.1073387,0.3276518
-0.7029746,-0.7611564,-0.4939061,-0.3250424,-1.2097960,1.0198622,-0.5990799,-0.6601491,0.1266873,-0.6854246,-0.0571210,0.9551592,0.4080632,-0.5739618,-0.0877104,-0.3265375,1.1907820,-0.2873721,0.2305781,-0.2957633,0.3899068
-0.7062455,-0.6034603,-0.3825316,-0.3734026,-1.2658761,0.6197362,-0.8073223,-0.7038490,-0.1127475,-0.3493944,0.2162251,0.4665685,0.5618128,-0.7335098,-0.2603961,-0.5344085,0.8200244,-0.2377426,0.7896613,-0.1586711,-0.1215128
-0.7559216,-0.2686658,-0.6663202,-0.2197324,-1.0478046,0.7388187,-0.9830365,-0.7655481,-0.8342537,-0.3807511,0.1613599,-0.2172109,0.4528557,-1.0463152,-0.5266435,-0.6876280,0.2993635,-0.9401308,0.1597852,-0.5792368,-0.4373927
-0.7447906,-0.3555268,-0.4445771,-0.1527308,-0.9453833,0.8420278,-0.9425685,-0.7798812,-0.5701045,-0.7250102,0.0322564,0.5163333,-0.2116101,-0.8073978,-0.6505109,-0.4420663,-0.2192650,-1.2345645,-0.2214292,-1.1006334,-0.6905590
-0.3837209,0.1352698,-0.3101897,-0.1679306,-0.8576355,1.1761603,-0.6558993,-0.7333906,-1.0139302,-1.0018384,0.0789808,-0.6276835,-0.1907769,-1.0098047,-0.8243944,-0.8687071,-0.2776195,-1.0137671,-0.4023059,-1.0633209,-1.2071851
-0.3959654,0.1749207,-0.1915443,-0.1400505,-0.4840652,1.1779764,-0.5108901,-0.7563640,-1.0306216,-1.6165872,-0.1994977,-1.2110833,-0.2671405,-0.8017003,-1.3380833,-1.6811811,-0.5486953,-1.3585665,-1.1337749,-1.4350625,-1.2966940
-0.5979907,-0.2934393,0.4334179,-0.4227118,-0.7304167,1.2488554,-0.4483262,-0.9096247,-0.9116870,-1.9188092,-0.2173438,0.0481041,0.1901016,-1.0577464,-1.8836963,-1.7352449,-0.8394765,-1.5308124,-1.9281918,-2.2344594,-1.5561956
-0.5745844,-0.2454026,0.6436419,0.0110441,-1.1112410,1.6066245,-0.4605214,-0.9051402,-1.4981632,-1.5388514,-0.2978133,0.5711226,0.3264328,-1.1164060,-1.4468061,-1.4823526,-0.3275756,-0.7137143,-1.5117902,-1.7512747,-1.1129768
-0.5915821,0.1325980,0.2985617,0.4403775,-1.0638162,1.8519047,-0.2813351,-0.7939934,-0.8732753,-0.8979315,-0.1815074,-0.9540942,0.2936734,-1.0805568,-0.8890538,-0.5731213,0.2111932,-0.7524022,-0.6210757,-0.6835611,-0.5997326
-0.6761014,0.0896395,0.0363118,0.2541893,-0.8476154,1.4489512,-0.4137551,-0.6644276,-1.2193129,-0.5620683,-0.3048801,-1.5666559,0.5566351,-0.8626171,-0.9110512,-1.1132200,0.0143471,-0.6386251,-0.8510831,-0.5828460,-0.5929750
-0.7127845,-0.3540310,0.0498729,-0.2365647,-0.7059937,1.3345428,-0.3651510,-0.6582195,-1.4166628,-0.8136397,-0.6530756,-0.7836801,0.3364988,-0.7787757,-1.1532354,-1.0878158,0.1629284,-0.3567281,-1.0359000,-0.9658506,-0.4362591
-0.7043932,0.4830958,1.0712668,-0.3438462,-0.9135928,1.9163705,-0.0332318,-0.6977381,-0.9256912,-0.8782825,-0.5797048,-1.0733349,0.8372733,-0.5174884,-0.6309868,-0.7780777,0.4601523,-0.1824297,-0.4855486,-0.8202390,0.2643062
-0.7644722,0.7204320,0.7746884,-0.3725611,-0.7763693,1.9608779,0.4342837,-0.7706648,-0.5793248,-0.7888776,-0.4952565,-1.0977325,1.2278142,-0.4693521,-0.5339653,-1.2015696,0.1215385,-0.0261074,-0.2255055,-0.5198697,0.4829327
-1.0348859,0.6043224,1.1726577,-0.8762668,-0.2994044,1.5866590,0.7272606,-0.7886129,-1.0546311,-1.2424558,-0.6136770,0.4048478,1.1792634,0.0404014,-0.7152216,-1.1845694,0.2703865,-0.0133446,-0.5127417,-0.8232782,0.6489614
-0.7106631,0.7016140,0.8229784,-0.7871433,-1.1966796,1.6961343,0.0573908,-0.7374653,-1.3850950,-0.9643638,-0.5484443,0.2930676,1.2605251,0.2644538,-0.5717837,-1.0257946,0.3538294,0.2740653,-0.0079685,-0.6565482,0.5408625
-0.3601107,0.0797601,0.4172412,-0.7921647,-1.1681474,1.7998614,-0.1436996,-0.6661523,-1.2638638,-1.0768782,-0.6112885,-0.7133391,0.5162308,-0.3362873,-0.2925762,-1.1586051,0.2366594,-0.0907366,0.1577828,-0.8749976,0.5046787
-0.1504389,-0.2340145,0.1007818,-0.2317401,-0.9812745,1.1063237,-0.1909696,-0.6401257,-0.7668228,-0.6598704,-0.6063806,0.0289674,0.8064874,-0.5013815,-0.5494903,-0.2132506,0.3484229,-0.1634924,0.4830691,0.1928663,0.8340471
-0.3913777,0.0663304,0.1035736,-0.0500112,-1.1595566,1.5033756,-0.5007623,-0.6232021,-0.4699147,-0.1819860,-0.4463264,0.1584214,0.3708214,-0.4559500,-0.1036071,-0.5418494,1.0096488,-0.1990606,0.6811808,0.1774881,0.3382426
-0.4376308,0.0689461,0.3677967,-0.5901459,-0.9318200,1.0944686,-0.7214639,-0.5448916,-0.2068269,-1.0401633,-0.3879478,-0.2928869,0.2386012,-0.6803181,-0.1330790,-0.6363915,0.7618908,-0.7426705,0.5724344,-0.5033571,-0.2324141
-0.7278712,-0.2525914,0.2594592,-0.1453201,-0.6084290,0.6510105,-0.4875444,-0.5156746,0.1565453,-0.6545781,-0.2483290,-0.0025871,0.5697401,-0.7290845,-0.3275132,-0.4992753,0.0693704,-0.8748835,0.1751945,-0.4043747,-0.3927284
-0.8857325,-0.1322824,0.2627590,-0.4603490,-0.8011768,0.2538745,-0.4401815,-0.6180292,0.1572610,-0.6364121,-0.1997124,0.1305351,0.1521248,-1.1000133,0.0441218,-1.1553483,-0.2882503,-0.8135514,0.0163378,-0.6229784,-0.5155245
-0.6010282,-0.1149967,-0.2691872,-0.8256169,-1.0734317,0.9725633,-0.4956632,-0.6711048,-0.4769774,-0.6522490,-0.1969912,-0.3761648,0.3119755,-0.7331038,-1.0537984,-1.5444363,-0.4619288,-0.7027987,-0.5921525,-1.0661260,-1.0968045
-0.6214169,-0.0115203,0.1249546,-1.0004228,-0.6760631,1.3583682,-0.6172603,-0.7517619,-1.6844858,-1.0373861,-0.4422530,-0.4909451,0.3847515,-0.5278658,-1.6915441,-1.4009181,-0.3179027,-1.0344042,-1.2293630,-1.1562921,-0.9794556
-0.9485477,-0.1569790,0.0121578,-1.3707895,-0.9731538,1.0654459,-1.0571365,-0.8860750,-1.1495844,-1.2286845,-0.4738410,0.7255341,0.4859180,-0.3375450,-1.4892576,-0.9585797,-0.0094588,-0.7657080,-1.0633034,-0.8759096,-0.5795511
-1.1073412,-0.0677335,0.2407100,-1.0568459,-1.0158329,0.4773740,-0.7823166,-0.7843322,-1.7347455,-1.2344401,-0.2727092,0.3815978,0.3961320,-0.4667958,-1.5369788,-1.0374649,0.4626011,-1.1763697,-0.9309243,-1.1447456,-0.6018943
-0.6780573,-0.0203078,-0.6059049,-0.6891366,-1.2941560,0.6494999,-0.9966413,-0.6958428,-1.7004158,-1.4236088,-0.4270755,-0.4040346,0.2064203,-1.4840029,-1.3679241,-0.9949870,0.0100797,-1.2983668,-0.6272247,-1.3307883,-0.6675450
-0.4054573,0.0125334,-0.2316723,-0.6368973,-0.8940046,1.0162245,-1.0281905,-0.7016661,-0.8161451,-1.0557172,-0.1576689,0.6656029,0.0424709,-1.1743238,-1.3147647,-1.1173328,-0.3386351,-0.8569666,-0.6035077,-0.8369031,-0.0217603
-0.6173590,0.0582243,0.2136518,-0.3234735,-1.0540570,0.8395823,-0.9274798,-0.6939394,-0.7685139,-0.8837637,0.1226705,-0.0384467,-0.0206445,-0.8432141,-1.4923722,-1.1470383,0.0209774,-0.6298879,-0.5981712,-0.4382368,0.0668221
-0.8679577,0.1438009,0.0438727,-0.9197745,-0.5892085,0.6027020,-0.9964747,-0.6602806,-0.8376669,-0.7968451,0.1743234,-1.0997959,0.4627750,-1.3887004,-1.6160040,-0.7594516,0.3601925,-0.3992414,-0.4940538,-0.2087817,0.1659528
-0.9709496,0.1296396,0.1307760,-1.3817526,-1.0343108,0.6325688,-0.6528346,-0.6802110,-1.3011105,-1.0713155,0.1633554,0.1419445,0.8127797,-1.0073996,-1.9163709,-1.2919075,0.5581560,-0.4603817,-1.0150853,-0.3383695,0.1398080
-1.2578195,0.3991901,0.3325388,-1.0083009,-0.7929710,0.5970095,-0.4055198,-0.8208579,-1.5529543,-1.0949332,-0.1418103,1.0618567,0.2983398,-0.7860007,-1.6367463,-1.6493150,0.7660046,-0.0799176,-1.0484772,-0.4214416,0.4950510
-0.7063683,0.3473078,0.1766320,-0.5441998,-1.2769877,1.3178381,-0.2660828,-0.7487070,-1.0922332,-0.7704161,-0.1445829,0.3465813,1.0352899,-0.4750367,-1.3358991,-1.0524615,0.6365355,-0.0549662,-0.5624593,-0.3788078,0.6672807
-0.6114176,0.5697256,0.3348567,-1.2730268,-1.2018691,1.6425623,-0.8033997,-0.5983649,-0.6757401,-0.8349645,-0.0409947,0.1375962,0.8126044,-1.0397393,-0.8688715,-0.9653229,0.7804877,-0.1699247,-0.1496747,0.2550543,0.5803500
-0.5371362,0.3917338,0.4168307,-0.5730513,-0.7350655,0.8978067,-0.5550030,-0.5680742,-0.3616880,-0.5516874,-0.2961912,1.2930846,0.7137531,-0.7255393,-0.1700657,-0.3238655,1.0686942,0.4340009,0.3557948,0.5248081,1.1238399
-0.6004629,0.1392527,0.4514775,-0.2522058,-0.8341931,1.4021771,-0.9207741,-0.5868644,-0.1413265,-0.2999463,-0.1975157,1.6752291,0.6984568,-0.1187771,0.1434419,-0.1865159,1.1621518,0.2078830,0.8429362,0.2125448,0.7724220
-0.6689566,0.5768308,-0.1532883,-1.0792438,-1.0422966,0.8216441,-1.1008334,-0.5159848,-0.6229277,-0.4829238,0.1035256,1.0217321,0.4727162,-0.3098931,-0.2559115,-0.3346518,0.7578402,-0.5598682,0.7989823,0.4317921,-0.3604600
-1.0951551,-0.0346878,-0.5861025,-1.3922968,-1.1132202,0.0079581,-1.0032536,-0.6302909,-0.4805842,-1.0615555,0.0989898,0.8597861,0.6105347,-1.0013170,-0.9247774,-0.7992652,0.6097429,-0.5552694,0.1818158,-0.0892426,-0.9056241
-1.2639434,-0.4351024,-0.6919389,-1.4669350,-1.1331136,0.1856511,-1.1924266,-0.6898890,-1.4261165,-1.4040023,-0.2898066,1.3291394,-0.0353281,-1.0925045,-1.6560590,-0.6845615,0.8831322,-0.9801378,-0.3306728,-0.7403569,-1.7448993
-0.8363230,-0.2080222,-0.5327020,-0.9195822,-0.7451403,-0.0709251,-1.0147803,-0.6051750,-1.3052526,-1.5860105,-0.2625870,0.0008276,-0.4346543,-1.0823154,-1.2286450,-0.5605584,0.4862096,-1.1981390,-0.0577158,-0.3880769,-1.9710380
-1.1195298,-0.1815227,-0.4085387,-1.3459867,-1.0251068,-0.0338094,-0.7930192,-0.5684872,-0.8268703,-1.4099326,-0.3352311,-0.2326916,-0.7000584,-1.4155722,-1.5935334,-1.0446202,-0.3396912,-1.2338444,-0.8990611,-1.0007900,-2.0686786
-1.0678228,-0.2935025,-0.0575818,-1.8897228,-1.3874444,0.0652565,-1.3357741,-0.5527705,-1.4182433,-1.5030288,-0.6885341,0.1134547,-0.4129366,-1.4200485,-1.9401113,-1.5033573,-1.2456577,-1.7642535,-1.6513547,-1.8184693,-2.1821315
-1.0115983,-0.0075074,0.3594933,-1.7185426,-1.0240490,0.9401758,-1.3140875,-0.6312885,-1.7012607,-2.0631828,-0.9465463,-1.4631568,-0.3764421,-1.9557128,-1.7753832,-1.8563643,-0.5913069,-1.6472000,-1.5590636,-2.0842860,-2.5081084
-1.0666116,-0.0313029,-0.0188578,-1.2301269,-0.6624662,0.7861971,-1.5853162,-0.6546921,-1.6660459,-1.9725274,-0.8232431,-1.3790191,-0.4490130,-1.9848524,-2.4981399,-1.9078460,-0.5176348,-1.5114784,-1.9934191,-2.1546998,-2.4200296
-1.0864052,-0.3262566,-0.4482642,-0.7741150,-0.9607520,-0.1687082,-1.8551080,-0.7861282,-2.0133560,-1.7731495,-0.7838749,0.2077478,-0.4401231,-2.1017764,-1.9952761,-1.6925427,-0.6081499,-1.3404722,-1.4830835,-1.6967690,-2.0008860
-0.9539776,-0.2548405,-0.4982816,-0.7003675,-1.3920770,0.4784004,-1.9673853,-0.6635407,-1.4521433,-1.3215390,-0.4581293,-0.2885810,-0.9303951,-2.1320477,-1.1811870,-0.5793051,-0.1699580,-1.1696624,-0.2774159,-1.0920180,-1.6476787
-0.7968140,0.1387861,-0.7959935,-0.6526241,-0.9864205,-0.1506564,-1.6842668,-0.5216620,-1.0357430,-1.2154965,-0.2678595,-0.2414720,-0.3463389,-1.8991616,-0.8035355,-0.1682268,0.5923778,-1.1383084,-0.3554242,-0.1464725,-1.5253437
-1.1917770,-0.1708190,-1.1351135,-0.8007084,-1.2850890,-0.0490594,-1.7499166,-0.5158050,-0.8177726,-1.0473300,-0.2989317,0.1305196,-0.4810311,-1.8368484,-0.7975566,-0.3894501,0.1130502,-1.1003824,-0.1558630,-0.4365950,-1.7155246
-1.1792102,-0.4186768,-1.0310532,-0.1356904,-1.4547132,-0.4569513,-2.0552249,-0.4683579,-0.3323487,-0.7594126,-0.4716934,-0.1236600,-0.7783923,-2.0283592,-0.6595894,-0.5306616,-0.5062654,-0.8188755,-0.2342941,-0.8065254,-1.3917736
-1.0939887,-0.0554391,-0.7991285,-0.4322338,-0.6915362,-0.2890487,-1.4663732,-0.3885980,-0.8291301,-0.8717423,-0.5596632,-1.8375021,-0.3138452,-2.1209562,-0.9148973,-0.4871339,-0.2836494,-0.3137930,-0.5755991,-0.6710992,-1.6003304
-0.7726634,0.2702970,0.1802940,-0.6386475,-0.4737583,-0.0234833,-1.1478270,-0.4815164,-1.1277773,-1.5828897,-0.6432149,-1.3632714,0.1290965,-0.6862974,-0.8224817,-0.6034878,0.1430515,-0.3909564,-0.9004087,-0.6531645,-1.6960424
-0.8909044,-0.2525915,0.4778073,-0.7051625,-1.3002187,-0.2905553,-0.8484722,-0.6566038,-1.1644093,-1.3047583,-0.3305120,0.5134264,0.1023375,-0.6591663,-1.2967631,-1.2117156,0.2024398,-0.3428099,-0.6571178,-0.3166269,-1.4607155
-0.5817021,0.3485040,0.5810187,0.0814502,-1.0412887,0.2018251,-0.1637777,-0.5751318,-1.2546645,-0.9078526,-0.5684475,0.2347506,0.3291190,0.0641756,-0.4062435,-0.6975608,-0.0762407,0.0971424,-0.3027762,-0.2304330,-1.0104839
-0.1525930,0.4027312,0.6200317,-0.1675707,-0.4991528,0.1342244,0.0162864,-0.3252764,-0.6564374,-0.7062023,-0.3810377,-0.2339916,1.0110291,0.5524994,-0.3834043,-0.2699470,0.3521504,-0.2037273,-0.1178466,0.3210219,-1.2256082
-0.2206824,0.2702615,0.5761322,-0.6276223,-0.6924980,-0.3751841,-0.3509507,-0.3744500,-0.9800171,-0.9909938,-0.5351785,0.9243510,0.6029130,0.5769100,-0.5949482,-0.6706899,0.3678695,0.1144530,-0.4103007,-0.2888417,-1.2691444
-0.0363911,0.5857597,0.0126084,-0.3420812,-0.9674288,-0.2108867,-0.5447343,-0.4259084,-0.6061515,-1.0157189,-0.5806245,0.8348369,-0.0904121,-0.0683837,-0.5084226,-0.5474352,0.1570731,0.1143578,-0.4721230,-0.4686670,-1.5738761
-0.2560270,0.5006933,-0.1309493,-0.5303262,-0.5906870,-0.4486611,-0.5261125,-0.3829637,-1.4866344,-1.1398790,-0.7272258,-0.4575644,-0.0102760,-0.3794982,-0.3507294,-0.1064196,-0.0036742,0.2242395,-0.4407478,-0.4368874,-1.6316663
-0.5322918,-0.0455347,0.1591729,-0.7212934,-0.7344821,-0.2294306,-0.4886630,-0.4221931,-1.7666768,-1.0667853,-0.7068619,0.6474573,0.4928125,-0.0668563,-0.2313199,-0.4914965,-0.1645889,0.0495508,-0.1038237,-0.1680778,-1.5332695
-0.5909466,0.0996331,0.1856901,0.1369415,-0.8143128,-0.4012068,-0.3103181,-0.3605196,-1.2309250,-0.7954069,-0.6618541,0.6704779,0.0013390,-0.2747258,-0.3774496,-0.5941594,0.3567472,0.1484590,0.2194718,-0.2034771,-1.4618453
-0.2723219,0.7152320,0.1858758,0.3554843,-0.8047972,0.4821191,-0.2516029,-0.1741911,-0.4284801,-1.1438752,-0.4187838,-0.6753104,0.4233656,-0.0736609,-0.2934272,-0.3732001,0.7724506,0.2363826,0.3731444,0.0593595,-1.0478996
-0.4775842,0.4049290,0.0809958,-0.7078649,-0.4522301,0.6726277,-0.6037488,-0.1666934,-0.2620837,-0.9470893,-0.1721752,0.0516175,0.5783560,-0.0096845,-0.5544453,-0.4898304,0.3091473,0.1268453,0.2981930,0.2010712,-0.9435905
-0.5725437,0.3805403,-0.2776634,-0.4388204,-0.7691547,0.0767283,-0.4485281,-0.3255917,-0.8916784,-0.7710387,-0.2152696,0.3095486,0.5839223,-0.0203893,-0.3637806,-0.5791993,0.0784299,0.2432087,0.1106085,-0.2829352,-1.4559320
-0.3073969,0.5713884,0.0523172,-0.3061856,-0.5463554,0.2571483,-0.7496515,-0.3832051,-0.8392524,-0.9691932,-0.1845242,-0.0695270,0.9967600,-0.1389946,-0.6007024,-0.6533012,0.0745839,0.4302278,0.2634277,-0.5367250,-1.3501147
-0.2844893,0.4657981,-0.5329079,-1.0175565,-0.4829262,0.5495293,-1.1698263,-0.3202361,-0.9671845,-1.1592746,-0.5818556,-0.2191246,0.2296763,-0.6532238,-1.2740387,-0.8782774,-0.2042882,-0.3377581,-0.3267297,-0.7067518,-1.7252033
-0.6952553,0.1435549,-0.3571031,-1.2594920,-1.4547914,0.1846479,-0.9658589,-0.3822832,-1.3806293,-1.4834595,-0.7621573,-0.6208478,0.0040267,-0.7545371,-1.4236968,-1.2125139,-0.7660189,-1.0762930,-0.9597938,-0.8410396,-1.9422349
-0.9644994,-0.3895210,-0.6178489,-0.7794043,-1.0083323,0.5174206,-0.6310272,-0.2766945,-1.1632538,-1.0730875,-0.6615278,-0.6250905,-0.0524483,-0.9721605,-0.6212327,-0.8531426,-0.3213570,-0.2114496,-0.4783577,-0.7583618,-1.3113357
-0.9420882,0.0420158,-0.4375762,-1.4338400,-1.0263084,0.6492211,-1.1225116,-0.2850747,-1.0157537,-0.5337239,-0.4150195,-0.5914235,-0.0225245,-0.7005510,-0.9999468,-0.6373362,0.4534061,-0.3514314,-0.3908450,-0.4609692,-1.1699334
-0.7016677,0.0034357,0.0918723,-1.3540877,-1.1183798,1.0382297,-0.8296336,-0.3658974,-1.1660707,-0.8596372,-0.4671084,0.1241938,0.2348521,-0.2711593,-0.6263027,-0.1622379,0.6177961,-0.0173319,-0.3657182,-0.2455476,-0.9448102
-0.5127058,0.2628720,0.0016305,-0.5168277,-0.5668249,1.1091279,0.1854576,-0.3713054,-0.8004935,-1.0556026,-0.3797037,0.0826595,1.1549343,-0.0763999,-0.0773250,0.0940997,0.9048814,0.4429250,0.3401512,0.1779365,-0.3038369
-0.6553094,0.7500423,0.6552512,-0.4063328,-0.6754929,1.4328402,0.4142701,-0.2397206,-1.1540474,-1.0491679,-0.5703146,-0.7780566,1.4780041,0.4605448,0.3733966,0.0633438,1.2579592,0.9969426,0.2002926,0.7035028,0.1842700
-0.4584868,0.7424045,0.6029367,-0.0356560,-0.9748933,1.1411337,0.3019904,-0.2389793,-0.6704516,-1.2203155,-0.6849273,-0.3518122,1.0128474,0.5050635,-0.1193891,-0.3371071,0.8062825,0.7361468,0.1136151,0.3636974,-0.4913088
-0.5870728,0.1972634,0.4340464,-0.1250343,-1.2135307,0.3743244,-0.0784516,-0.3783508,-0.2621391,-1.4452317,-1.1530142,0.0603197,0.7264568,0.3353285,-0.3377286,-0.3726737,0.4433992,0.5294273,0.1574182,0.1155268,-0.6193447
-0.4293606,0.0542352,0.1530197,0.0910146,-0.5178437,0.6458269,0.0586626,-0.2162764,-0.3971346,-1.2788900,-1.0439091,-0.9151756,0.6814783,0.5184048,0.0992258,-0.4825160,0.2304954,0.9598880,0.5799668,0.2666579,-0.2748766
-0.5307589,0.4941071,0.0211734,-0.8628951,-0.4382819,0.6037235,0.0900411,-0.1993236,-0.3738298,-0.9011010,-0.8030798,-0.1395939,0.5323386,0.5228541,-0.2406511,-0.4417873,0.2796535,0.1232410,0.8026969,0.1526446,-0.4257085
-0.9217830,0.5439727,-0.5647737,-1.3092355,-0.9473436,0.7351734,-0.0844160,-0.3286777,-0.6241837,-1.3260520,-1.0332402,0.4971973,0.7760675,0.1641572,-0.8697772,-1.2246987,-0.1297264,-0.2203598,-0.2174674,-0.4228680,-1.1704426
-0.6793562,0.5969836,-0.6698924,-1.5352193,-1.2809355,1.5008893,-0.1854575,-0.3859637,-1.5298182,-1.4927742,-0.8884402,-0.4480102,-0.0223822,-0.4327536,-1.2640647,-1.3617620,-0.1788343,-0.4260654,-0.7853707,-0.7484345,-1.5276110
-0.4582342,0.4884312,-0.2551695,-0.9179600,-0.6388670,1.4021533,-0.1942582,-0.2787049,-1.0029840,-0.9601227,-0.6658893,-0.2168545,0.0948497,-0.1972392,-0.8391753,-0.8810197,0.3734885,-0.3745759,-0.4104466,-0.1044570,-1.1761250
-0.7330800,0.3272940,0.0363292,-0.7721669,-0.1841724,1.2293025,0.3283889,-0.2599744,-0.9757695,-0.7542809,-0.7261607,0.5627633,0.3018608,-0.0880411,-0.8341931,-1.0403347,0.4375140,-0.5981942,-0.0743706,0.0024049,-1.1027346
-0.5594168,0.0781802,0.1809730,-0.9827703,-0.4146778,0.7205647,-0.2011140,-0.3283429,-1.3367480,-1.0103488,-0.6751270,0.6081032,0.4263245,0.1509798,-0.9891968,-0.4403376,0.3790772,-0.2416369,0.0497841,-0.5175252,-1.0501726
-0.3640824,0.4922395,-0.2352619,-0.5498839,-0.3077157,1.1046858,-0.4514339,-0.2685485,-1.4166281,-0.9459193,-0.8101518,-0.8438939,0.6360177,0.1501068,-0.4906472,-0.7094801,-0.3355120,-0.2407675,0.0054139,-0.2469876,-0.6722708
-0.3247435,0.8616577,-0.0999694,-0.7419378,-0.6197484,1.5444014,0.3389434,-0.1864165,-1.3609434,-0.2558652,-0.8188504,-0.8530743,0.5734214,0.4847264,-0.0325853,-0.9725940,-0.3117637,-0.1291370,0.2770771,-0.2210819,-0.3263757
-0.5340417,0.4670599,-0.3389770,-0.4047474,-0.6451917,1.3335009,0.4115629,-0.2719069,-0.6878225,-1.0309877,-1.0474030,-0.4138420,0.6935412,0.4393749,0.1254125,-0.9081951,0.5139897,0.8193145,0.6125076,-0.1568306,-0.0435080
-0.2965742,0.9931639,0.2642707,-0.4234620,-0.3041044,1.6481197,1.1816475,-0.0650723,-0.0532933,-0.8191468,-0.6102389,-0.1936180,1.3500137,1.0958738,0.6211974,-0.3462970,0.9996170,1.3649011,1.3026907,0.5212199,0.2899611
-0.4745869,1.6208590,0.8103558,-0.5024379,-0.5951440,2.1544034,1.1775094,0.0713950,0.2612233,-0.3301390,-0.5132515,0.2850193,2.2025893,2.0790291,0.7360986,-0.0125335,1.4237206,1.5258341,1.1937511,0.8434800,0.3646519
-0.3167163,0.8214476,0.9396613,-0.0187962,-0.5969692,2.0950689,1.0336772,-0.0324169,0.1020880,-0.1879658,-0.5305169,0.8371449,2.0652797,1.8675857,0.5687276,-0.3421823,1.0676103,1.7066875,0.4188876,0.7267329,0.3513452
-0.1065739,0.7150008,0.9371560,-0.0970526,-0.5627817,1.7018838,1.3598549,-0.0632354,-0.3381850,-0.2947364,-0.6059098,0.9690488,1.6356703,1.7202574,0.9958393,-0.1012502,0.9446104,1.3334720,1.2867309,0.9415391,0.2245169
-0.1821895,0.7781942,0.8895472,-0.7578541,0.2760625,2.0057967,0.8828930,-0.0568416,-0.1493712,-0.2791296,-0.4393224,0.2755744,1.5884356,1.6337875,0.9702799,0.0249068,0.7560523,1.1125226,1.4928992,1.0625644,0.2153758
-0.0801310,0.6496784,0.6795151,-0.5560570,0.8106252,2.1314957,0.0404550,-0.0852531,-0.1853356,-0.1126921,-0.4852380,0.1014084,1.3518063,1.0398953,0.5529004,-0.0541806,0.4091295,0.7921034,0.7608781,0.9725892,0.1088073
-0.3453887,0.5861863,0.2420181,0.4328918,0.3511916,1.9818537,0.4243277,0.0015912,-0.2774064,-0.3975061,-0.7726428,0.5785189,1.2252749,1.0564843,1.1279520,0.4636413,0.1166764,0.6921524,0.7944847,0.5449823,-0.3057845
-0.2614488,0.9846797,0.3682009,-0.1318493,0.3707508,2.1477757,0.4636869,-0.0014070,0.2575442,-0.9258787,-0.8116878,-0.1520151,1.0876204,1.0996953,1.3750136,0.2202945,0.0868209,0.3326734,1.1112759,0.7330750,-0.6133749
-0.2650082,0.7841968,0.1080603,-0.8330544,-0.0826290,1.8765210,0.2745312,-0.0383509,0.5095882,-0.4437603,-0.6932794,0.2859049,0.5608130,0.5405973,0.4424840,-0.0903058,-0.1379984,0.0273206,0.6218562,0.2000477,-0.9443702
-0.6099696,0.3590102,-0.5564722,-0.4776956,-0.3020746,1.4171863,0.1648840,0.0392871,-0.5197711,-0.0617656,-0.6595031,1.0400790,0.3558496,0.3387442,0.0777401,0.2042661,-0.1832756,-0.2398298,0.2340020,0.0749594,-0.9495918
-0.5409727,0.6581917,-0.6813198,-0.0978652,-0.3935200,1.7178811,-0.4095739,-0.0074246,-0.6524459,-0.0732442,-0.4800783,0.9444456,0.7186462,-0.0526446,0.4754669,0.1125663,1.0330395,0.0754366,0.4683919,0.2620489,-0.5481218
-0.7478136,0.5710770,-0.7662523,-0.2039654,0.2986404,1.3098828,-0.9076717,-0.1333667,-0.6264049,-0.7434852,-0.1735921,1.7113169,0.8192019,-0.0455423,0.0745152,-0.7754998,0.7449127,0.0084235,-0.1109086,0.2888851,-0.8365088
-1.1107028,-0.0382695,-0.6290325,-1.8161855,-0.3761388,0.7823722,-0.8777825,-0.2780004,-1.0915185,-0.9547581,-0.4121593,1.5251473,-0.0454280,-0.4566681,-0.1896257,-0.4688632,0.0339166,-0.3951219,-0.5950708,-0.4339784,-1.4319423
-1.0620897,-0.0596152,-0.1379538,-1.5792066,-0.5067880,0.9419317,-0.9266557,-0.3255853,-1.5400286,-1.0099175,-0.6063581,0.9327006,-0.3977850,-0.8437659,-0.7419423,-0.7533845,-0.4912666,-0.6396606,-1.0628000,-1.0468743,-1.5144426
-0.7171042,0.5352945,0.0063071,-1.2262650,-0.0482643,1.7134250,-0.8826308,-0.3057832,-1.1464626,-1.6803175,-0.8871817,-0.2095083,-0.0554463,-0.8431107,-0.9872256,-1.1071100,-0.8518903,-0.2710052,-1.3514719,-0.7607740,-1.4420509
-0.6634171,0.5699897,-0.0982454,-1.1242336,-0.3782101,1.5273228,-0.7502913,-0.1976292,-0.9570324,-1.4462395,-1.0977044,-0.5617421,0.0074884,-0.5394571,-1.0249873,-1.5428431,-1.1364187,-0.3007859,-1.1899401,-0.6942335,-1.4396695
-0.8213062,0.6301976,-0.1228749,-1.6215739,-0.4862707,0.8388392,-0.6718937,-0.2785962,-1.5569816,-1.5716076,-1.1532813,-0.7420602,-0.2099290,-0.8690199,-1.4256943,-1.4908011,-1.3385036,-0.6438012,-1.8859034,-1.4185669,-1.8032653
-0.9136163,0.6384323,-0.4780250,-1.5900540,-0.7252260,1.6725458,-0.8258823,-0.3970222,-1.7790840,-1.8812075,-1.0290396,-1.9203210,-0.4615805,-1.0111070,-1.3185192,-1.4744537,-1.0545022,-0.4861611,-1.7859377,-1.4988220,-1.9153550
-0.9514520,0.6812970,-0.0479208,-1.3381095,-0.4197243,1.2543397,-1.0155945,-0.2995082,-1.6298535,-1.2910317,-0.9149731,-1.5885247,-0.2348773,-1.2134304,-1.0118946,-1.1741196,-0.8368735,-0.6118922,-1.5324092,-0.9315649,-1.9589545
-1.0760056,0.5613802,-0.0636412,-1.4163756,-0.2415944,1.3824235,-0.5258118,-0.1032573,-0.7937428,-0.7806237,-0.4965553,-0.2365475,-0.0621868,-0.6896397,-0.7149870,-0.9459673,-0.5999658,-0.3675900,-1.3303820,-0.6497502,-1.6673697
-1.2634383,0.2822518,-0.0362108,-1.5795459,-0.5957734,1.4810249,-0.2437970,-0.1080064,-1.0167832,-0.5927047,-0.9277413,-0.8677534,0.1751708,-0.3822626,-0.7928073,-0.6723483,-1.0051830,-0.7350805,-1.1818811,-0.9279184,-1.8525198
-0.9428036,0.4625736,-0.1682212,-1.4358180,0.2122321,1.1122118,-0.1919244,-0.1316132,-1.4374747,-0.9699729,-0.9469266,-1.0118454,0.0456219,-0.5217169,-0.5874572,-1.1993035,-0.6793830,-1.2288537,-1.4310026,-1.1342720,-2.0110490
-0.8494127,0.3106656,0.2906616,-1.5206877,0.1713906,1.4357939,0.0011872,-0.2598079,-1.2796667,-1.2456617,-1.1768942,0.1664004,-0.0552439,-0.6215290,-0.9041243,-1.6758434,-1.0090972,-0.8176637,-1.7957313,-1.4859983,-2.0816975
-0.8366187,0.9165804,0.1025118,-1.1606882,-0.4426852,1.7507708,-0.2585751,-0.2175762,-1.3865209,-1.4690489,-1.2041720,-0.5361496,-0.0762882,-0.5559896,-1.0936180,-1.7342136,-1.3178514,-0.4657080,-1.4095968,-1.5959593,-2.1208525
-1.2435484,0.8804078,0.3556178,-2.3988833,-0.0168572,1.6436381,-0.7013606,-0.1701424,-1.9882486,-1.2018838,-1.0059617,-1.9834292,0.1549194,-0.6230533,-1.1616498,-1.7990196,-1.3666492,-0.3305998,-1.5433278,-1.6344513,-2.2543256
-1.4159173,0.8480845,-0.2397712,-2.5676315,-0.9273244,1.5007656,-1.0919770,-0.2152766,-2.2001367,-1.9007807,-1.2069939,-1.2501944,-0.1922340,-1.1177907,-2.0309031,-2.0160143,-1.5860424,-0.8528695,-2.2875810,-1.7533503,-2.3222284
-1.1570048,0.5601056,-0.3421942,-1.5432662,-0.7239546,1.1588831,-0.8342788,-0.3030623,-2.3718028,-1.9077762,-1.3482555,-0.8025922,-0.1536361,-1.2454286,-1.4878553,-1.3324836,-1.3621293,-0.6496807,-1.6609846,-1.9807042,-1.8620396
-0.8696599,1.2376415,-0.2445110,-1.3132131,-0.8093595,1.0301001,-0.4587191,-0.2774477,-1.7487400,-1.6013440,-1.1061788,-1.3260647,-0.1799656,-1.0745686,-0.8409560,-0.7889271,-0.4547301,-0.3256277,-1.1052350,-1.1969867,-1.5553931
-0.9112204,0.7399390,-0.2107452,-1.8932852,-0.3579000,1.4920512,-0.6387154,-0.2751063,-1.8378881,-1.4254470,-0.8312274,-0.3398390,0.0247812,-0.8648757,-1.2574137,-0.9883214,-0.3569758,-0.7546483,-1.3364578,-0.8266824,-1.3281190
-0.9254072,0.4015222,-0.6754823,-1.8612814,-0.9689482,0.3094152,-0.5996218,-0.2901624,-2.0435207,-0.9952008,-1.0740412,0.9031056,-0.1063195,-1.2388684,-1.4605488,-0.9033570,-0.5336925,-0.5785301,-1.6973277,-1.6023573,-1.0732141
-0.9333149,0.3673386,-0.5229774,-1.0361167,-0.9500632,0.5419261,-0.8081875,-0.2726628,-1.2438455,-0.5722058,-1.1656945,0.1596202,0.1905875,-0.9842154,-0.7152659,-0.1850944,0.0890280,0.4919958,-1.1392649,-1.1531887,-0.5452674
-0.6864210,0.8239729,-0.2190298,-0.6287999,-0.0424715,1.5305731,-0.4888696,-0.1466450,0.0571439,0.0525044,-0.9065168,0.0290209,0.7448484,-0.6128812,-0.6875467,-0.3759145,0.1519735,0.5431142,-0.9507776,-0.3802710,-0.7119980
-0.8664856,0.7217578,-0.4483920,-0.7746700,-0.2798809,0.3505060,-0.6234896,-0.1982965,-0.0141340,-0.6126468,-1.0027537,0.4798705,0.4284773,-0.3754568,-1.1109623,-1.2276558,-0.7431064,0.5224742,-0.9456762,-0.6621693,-1.1721467
-1.2770786,0.6481168,-0.7408003,-0.9002271,-0.4809242,-0.2876357,-0.9452137,-0.1954866,-0.9232358,-1.1160401,-1.0747572,-0.2754759,-0.4181576,-0.6160205,-0.6390409,-1.1682370,-0.6266093,0.1705690,-1.0138286,-0.7940809,-1.3091254
-1.2582139,0.3396635,-0.9043082,-0.4965164,-0.6366859,0.0063653,-1.6536269,-0.1208251,-0.7733791,-0.8622928,-1.1611012,-1.6021225,-0.3724680,-1.1110237,-0.5804577,-1.1054182,-0.2071952,-0.2306600,-1.5578158,-0.9029455,-1.4627572
-1.0455376,0.4603814,-0.4356479,-0.2308111,-0.4367668,0.1636563,-1.5311338,-0.1826156,-0.3888099,-1.2636079,-1.1242436,-0.3915119,-0.5399755,-1.6399629,-0.2869341,-1.2877941,-1.0779425,0.0378399,-1.5554051,-1.0273795,-1.4782779
-0.8298913,0.5244744,-0.2791413,-0.2201334,-0.1499022,0.5172518,-1.2187531,-0.1649327,-0.5411937,-0.9230694,-1.2763969,-0.9062137,-0.4933805,-1.6205685,-0.4679510,-0.9492785,-1.2481366,0.0645114,-1.2840893,-1.0704445,-1.4724591
-0.5592692,0.4943816,-0.8813980,-0.1596340,-0.2356482,0.5496036,-1.4298494,-0.1390292,-0.9678758,-0.5799184,-1.3614861,-1.0716249,-0.3195597,-1.5815145,-1.0554794,-1.0747521,-1.1654053,-0.5812689,-0.9470201,-1.4681233,-1.9193954
-0.3639619,0.5710523,-0.3052241,-0.1498722,-0.7880107,1.1167862,-1.1413926,-0.2806720,-1.3837811,-1.1412339,-1.2402965,-1.3293049,-0.4316085,-1.1259295,-1.1674405,-1.4265966,-1.0368503,-0.2206778,-1.4064913,-1.3503799,-2.0942981
-0.5128340,0.6800995,-0.3769210,0.0277221,-0.6586622,0.5801402,-1.0220382,-0.2222393,-0.6490952,-0.8179942,-1.0795463,-0.0180503,-0.2722550,-0.9912071,-0.8773084,-1.1349387,-0.7151242,-0.0953258,-1.1158056,-0.8945058,-1.5215547
-0.4790844,0.7655251,-0.4646927,0.3106331,-0.3717205,0.2645733,-0.6179364,-0.1039416,-0.6148658,-0.7530230,-0.9873196,-0.7359829,-0.2976058,-0.9991081,-0.4396993,-0.5528187,-0.4246886,0.1555632,-0.8043649,-0.5084628,-1.2532321
-0.4853115,0.7918291,-0.3450903,0.8602514,-0.2577778,0.7089015,-0.6978275,0.0449398,-0.4746585,-0.6670908,-0.9866273,-0.5996127,0.5372347,-0.7187492,0.3641905,-0.2936005,0.3561912,0.6732860,-0.4174908,-0.2690746,-0.8033321
-0.3631750,0.5743132,-0.0047220,0.8200948,-0.0784751,0.5117494,-0.7304670,0.0393700,-0.1413095,-0.4378285,-1.0895673,0.3192590,0.7109038,-0.7674378,-0.3194043,-0.4606020,0.2162078,0.3719643,-0.5521370,-0.4381683,-0.5767142
-0.4646667,0.3199812,-0.2879648,-0.4176956,-0.4797027,0.3390993,-0.4088001,-0.1012873,-0.4353457,-0.5657873,-1.2358788,-0.9048144,0.3329413,-1.0767971,-0.1822535,0.0303344,0.1132160,0.7830767,-0.3222108,-0.3019011,-0.4220563
-0.2513548,1.0916398,-0.4346147,0.2504396,-0.0622776,0.6179076,0.0120550,0.0176050,0.1421743,-0.6303648,-0.8827731,-0.5804930,0.7718474,-0.4632764,0.1926632,0.0873089,0.4879896,1.2718575,-0.1072530,0.0398964,-0.0249265
-0.1765116,0.5688822,0.1619720,0.6643611,-0.0008318,1.7082325,0.0421359,0.0149132,0.1120923,-0.6228542,-1.0550693,0.6782832,0.9921737,0.2737662,0.4485229,-0.2993406,0.7413307,1.1237338,0.3045264,0.4217974,-0.0199965
-0.4897434,0.5352784,0.3102159,0.3946043,-0.3552106,1.3339555,-0.5785233,0.0008691,-0.2252457,-1.0408642,-1.2533687,0.8153204,0.4017040,0.0083830,-0.1129884,-0.7854899,0.0590799,0.7258840,0.1451404,0.1497781,-0.5063258
-0.2481320,1.3182023,-0.3577224,0.8260245,-0.4578565,1.0091754,-0.2080489,-0.0022879,-0.6970978,-1.3835557,-1.2014567,-0.8274083,0.4692951,0.0407807,-0.1324731,-0.6606191,0.4760295,1.0537424,-0.2711639,0.0182136,-0.0828185
-0.1117954,1.1279018,0.4964369,1.1335882,-0.5228716,1.0080272,0.2189070,0.0221667,-0.0964050,-0.8898858,-1.6176074,-0.2825940,0.8128746,0.1724076,-0.3363002,-0.7504670,-0.0943245,0.8853054,-0.4880258,-0.0096781,-0.1048481
-0.3717814,1.0523709,0.1939692,0.5401085,-0.8960512,0.2950739,0.1241202,0.0285679,-0.2182875,-0.5584103,-1.6803058,0.8881264,0.3759122,0.2322793,-0.2421564,-1.3155506,-0.5259802,1.0062015,-0.1366815,0.2796317,0.0458169
-0.3769477,1.0957054,0.1869006,0.0070462,-0.7205434,0.4098701,0.1162812,0.1002069,-1.0576513,-1.1259766,-1.4753857,0.3059730,0.4295636,-0.1149189,-0.5540892,-1.0024985,-0.0941522,1.4763802,-0.5604798,0.4255239,0.2053138
-0.5818717,1.0712359,0.2396025,-0.0838346,-0.6327797,0.7529896,0.0966069,-0.0008942,-0.6494728,-1.2122645,-1.1822029,0.1620315,0.7320336,0.1915603,-0.2907157,-0.7490985,0.2575254,1.7257406,-0.3235973,0.8907053,0.1582974
-0.4762074,0.9444867,-0.2369401,-0.0775940,-0.9008328,0.2159669,0.0735712,-0.0433117,-0.6873367,-0.9994933,-1.1923633,0.8261344,0.7019314,0.3483401,-0.6820366,-0.7357012,0.1284878,1.5224949,-0.4009241,0.7678639,-0.0560385
-0.6355143,0.4318023,-0.0813266,0.0943182,-1.4366856,0.1983329,-0.1279016,0.0100049,-0.7836592,-1.1616184,-1.1568940,0.6211202,0.4901896,0.3862766,-0.7533417,-0.4692320,0.4307328,1.2771655,-0.3529694,0.4825957,-0.1534731
-0.6752165,0.7781518,-0.4349515,-0.3187895,-0.8392441,0.6768420,-0.2001023,-0.0090277,-1.3995756,-0.9912850,-1.1222112,-0.3943857,0.1306250,0.0362601,-0.1432144,-0.3492565,0.3335826,0.5552056,-0.9658071,-0.1426137,-0.5368466
-0.8615833,0.8345469,-0.4207980,-0.3441979,-0.2756032,0.0043633,-0.5903713,-0.0823066,-1.0981662,-0.3069511,-1.0326873,0.0608087,0.0343852,-0.1822103,-0.7214684,-0.3603010,0.2720193,0.4033675,-1.0256416,0.2373071,-0.9995439
-0.7071085,0.4832659,0.1138234,0.2032578,-0.0983680,0.4722594,-0.7434505,-0.0766034,-1.1783106,-0.5770399,-1.0983213,0.2012978,-0.2091013,-0.2445661,-0.9490035,-0.1163336,0.3237107,0.7716667,-1.3143371,0.0507897,-1.1862613
-0.8187760,0.7552884,-0.1668890,0.8197982,-0.1053663,0.6411319,-0.3705580,0.1150785,-0.7119384,-0.8634870,-1.1362059,-0.2596012,0.2040943,-0.7002221,-0.7832062,-0.4139856,0.6014854,0.6925493,-0.7850778,0.7277684,-0.7463958
-0.7125223,0.7684199,0.0758310,-0.2647402,-0.4914892,0.6692200,-0.3812177,0.0432454,-0.5873395,-0.5974167,-1.1376672,0.3263002,0.8143936,-0.2834646,-1.0815399,-0.6679937,0.4123295,0.6071960,-0.9988629,0.5091553,-0.4129522
-0.9959773,1.0096138,-0.8490932,-0.7371752,-0.8001345,0.4772597,-0.9163265,-0.0684109,-1.2224770,-0.3305876,-1.4171718,0.4708320,0.3407390,-0.2419783,-1.2110199,-0.8628776,0.0172200,0.2952568,-1.1980574,-0.0396149,-0.3103689
-1.1813509,0.5859631,-1.0014824,-0.5416334,-1.4053245,0.3726448,-1.4524283,-0.1376827,-1.9527885,-0.8640932,-1.3635117,-0.3558191,0.0992509,-1.0523448,-1.6554297,-1.6081901,-0.0034681,0.1555356,-1.3242666,-0.2590762,-0.3893435
-1.1240901,0.2413125,-0.8040233,-0.5391077,-0.6928810,0.4650840,-1.3638006,-0.1975004,-2.2425971,-1.2410583,-1.2297944,-0.0855426,0.0562381,-1.5022120,-1.5425389,-0.7890998,0.8899612,0.8395408,-1.4836954,-0.1884525,0.0072819
-0.9237229,0.5612980,-0.2211649,-0.2411706,-0.5661756,0.7608827,-0.2947958,-0.1320636,-1.2287793,-0.8685530,-0.9670754,0.8268840,0.5152722,0.0337233,-1.1544204,-0.1663302,1.6210057,1.1197560,-1.2159331,1.0258594,0.3211795
-0.8297227,0.8029512,-0.5536115,-0.0023218,-0.8359056,1.4662939,-0.1848540,-0.0200870,-1.3048277,-1.0112573,-0.9011099,0.6085576,0.9886333,0.2675429,-1.5181603,-0.2812606,1.2924644,1.0097998,-0.7876910,1.4401355,0.5010979
-0.8561900,0.7009285,-0.4660830,0.3611267,-0.2946863,1.5539103,-0.1392691,-0.0167444,-1.2122117,-1.0877671,-1.1532015,-0.5643786,0.3519615,-0.2988218,-1.4457724,-0.3264869,0.4031367,0.7892978,-0.8379174,0.5253975,0.3157548
-1.0696079,0.7165115,-0.2771530,0.0707513,-0.6080793,0.3290793,-0.5062119,-0.0026172,-0.3211215,-0.5286686,-1.0252106,0.3110436,0.6346965,-0.0146107,-1.3686723,-0.3256217,0.3525865,0.7283685,-0.6450934,0.6772989,0.1222195
-0.7391369,1.0457966,-0.3883987,0.0367665,-0.4464337,-0.0536169,-0.4847079,-0.1056942,-0.4208017,-0.5933858,-1.3542782,1.0207454,0.3661828,0.0177538,-0.7509950,-0.6368212,0.4156910,0.8078721,-0.7353165,0.6695243,0.0202147
-0.7114848,1.2692103,-0.8629538,0.3661233,-0.7317908,0.4447110,-0.3608197,0.1152501,-0.7880594,-0.6158175,-1.3111804,-0.2570913,0.4831357,0.2980413,-0.3135061,-0.5917829,0.8740682,1.0730535,-0.3714288,0.6645369,0.4107983
-0.8975495,0.6832366,-0.0990754,0.4996561,-0.7858495,1.1769474,-0.7149953,0.1785991,-0.2498876,-0.2815411,-1.2820686,0.4380732,0.4718539,-0.2869188,-0.3172964,-0.3393836,0.3616611,0.6194112,-0.2353438,0.5093147,-0.2905984
-0.5228578,0.9730415,0.0338924,0.4206643,-0.2961013,0.6717503,-0.2958175,0.1080738,-0.4812421,-0.0089793,-1.3194888,1.6446955,0.4371500,-0.5898455,-0.2119725,-0.3722578,0.1004349,0.7610524,-0.2802420,0.2999118,-0.0456696
-0.5752767,1.5865459,0.0818056,0.4475162,-0.9782630,0.5155262,-0.3194944,0.1896966,-0.5451026,-0.0107733,-1.0669608,0.1470086,0.7488970,-0.0864338,-0.6764113,-0.1967232,0.6010430,0.9321097,-0.1944926,0.7459937,-0.2095777
-0.4609359,1.0551790,0.4101677,-0.2259440,-0.3034370,0.9328799,-0.9027912,0.1449457,-1.0137634,-0.1807467,-1.1695234,-0.1038929,0.1447950,-0.3760074,-0.3981603,-0.1801622,0.2085210,0.1087947,-0.3338734,0.3855678,-0.8708994
-0.6993705,1.0476744,-0.3352554,-0.3804345,-1.3682699,0.4066072,-1.1806221,0.0619635,-1.0355632,0.0028647,-1.2077620,0.3288363,-0.3356207,-1.0112728,-1.0835923,-1.0218002,-0.4622230,-0.4671806,-1.1677250,-0.5349536,-1.4109570
-0.8113542,0.7411333,-0.5024917,0.1219640,-1.1178814,0.7579260,-1.0417297,0.1380072,-1.3440574,-0.3631202,-1.2358586,-0.3311593,-0.5178894,-1.5829709,-0.9417857,-1.0888480,-0.7056397,-0.4062707,-1.4059954,-0.4465339,-1.2243078
-0.8876098,0.7371566,-0.4600585,0.3834577,-0.7626677,0.3033660,-1.4117284,0.1651706,-1.0545874,-0.9016664,-1.3125587,-0.7851168,-0.5271447,-1.4693148,-1.2660589,-0.8847943,-0.6442848,-0.3027737,-1.1410728,-0.6579941,-1.7004163
-0.9349895,0.6959291,-0.7645485,0.3541619,-1.2019700,-0.0062544,-1.3151288,0.0416414,-1.2760805,-1.1797296,-1.1591437,0.0881635,-0.8060140,-1.8178749,-1.5023949,-0.5188109,-0.4275399,-0.6560127,-1.6357117,-0.7570771,-1.6006354
-1.2120131,0.6167618,-0.5840647,-0.1279571,-1.2794387,-0.1114264,-1.1823348,-0.0344212,-1.4371606,-0.5555139,-1.3160576,0.9954491,-0.6037244,-1.6022068,-1.7851130,-0.7098150,-0.0882479,-0.6534608,-0.9741495,-0.1279418,-1.1579709
-1.4697399,0.5563020,-0.7053894,-0.2995014,-1.7417043,-0.0479425,-1.0964123,0.0258958,-1.3733504,-0.3502705,-1.2848176,-0.7043987,-0.7488785,-1.2503103,-1.8530893,-1.3941805,-0.3994685,-0.8214634,-0.9723968,-0.0430930,-1.4348261
-1.4259894,-0.2358563,-1.1184797,-0.9452624,-1.5366105,-0.0836304,-1.8642788,-0.0117327,-1.6816123,-0.9849054,-0.9784134,-0.9749261,-0.8889951,-1.2737314,-1.7018468,-1.1394265,-0.7458381,-1.1694441,-1.5993397,-0.4282547,-1.4451208
-1.6970662,-0.1434078,-1.7139121,-1.4493104,-1.7002647,-0.5795473,-2.0832400,-0.0951302,-2.4029233,-1.4783744,-1.1224549,-0.3140281,-1.5141369,-1.8899831,-2.0488183,-1.3210660,-0.8116687,-1.3481799,-1.5765810,-0.9132310,-1.5384452
-1.3534588,0.1916328,-1.0263735,-0.9662138,-1.7673895,-0.0595098,-1.5687304,-0.1060280,-1.7356203,-1.1962471,-1.1262136,-1.2400079,-1.3042381,-1.7436393,-1.8547812,-0.8909690,-0.4517508,-0.9287679,-1.1402476,-0.5127388,-1.1221139
-1.4534521,0.3714719,-0.7489982,-0.8634886,-1.3636118,0.0873959,-1.5740103,-0.0613973,-1.2419811,-0.9455354,-1.0546923,-1.8313196,-0.6687050,-1.1646702,-1.6562362,-0.7617502,-0.0581738,-0.7747213,-1.5332383,-0.4801882,-1.1758949
-1.5366163,0.1623396,-0.6379191,-1.0308300,-1.7916378,0.0257753,-1.2050735,-0.0114494,-1.0174700,-0.6938422,-0.9561467,-0.3828939,-0.8526278,-0.8145682,-2.0506375,-1.3295730,-0.1752416,-0.8153999,-1.6030490,-0.7031419,-1.4579859
-1.4232609,-0.2868574,-0.9239335,-0.4463992,-1.4191161,0.1759872,-1.3132948,0.0865496,-0.5954637,-0.6859931,-0.9942420,-0.1669797,-0.6812038,-1.1710105,-2.2793882,-0.7869121,0.1211688,-0.5512332,-1.4270694,-0.6925651,-1.6136403
-1.2422966,-0.0101444,-1.0713551,-0.3384054,-0.8989851,0.7674861,-0.9060696,0.1034710,-0.7528667,-0.4230206,-1.0726696,-1.1584169,-0.2779393,-1.5482299,-1.7976106,-0.5097145,0.4926232,-0.6034738,-1.1183437,-0.5248312,-1.3578336
-1.0725113,-0.1641018,-0.3121525,-0.4493163,-0.8867177,0.2922350,-0.5310905,0.0344459,-0.5988163,0.1299812,-0.8717805,0.2151613,-0.1821749,-0.9410622,-1.2522250,-0.5635464,0.6501324,-0.3714848,-0.9371484,-0.0009514,-1.0257614
-0.8750486,0.0790109,-0.3512881,-0.5123805,-0.9363475,0.1248194,-0.5576393,0.0430475,-0.9801120,-0.2106071,-0.7695106,0.5508322,-0.0684170,-0.7309734,-0.9744116,-0.4290626,0.2431182,-0.2465376,-0.5111236,0.0546985,-0.8962484
-0.9823913,0.2797506,-1.0213950,-0.1396007,-1.8584561,1.0682749,-0.4442663,0.2440278,-0.2569375,-0.6237277,-0.8933051,-0.3194746,-0.3518457,-0.4840153,-0.5531906,-0.4526594,0.4366626,-0.2868055,-0.4545418,-0.2404869,-0.7990950
-1.2054216,0.3865578,-0.4579974,-0.0194328,-1.1395272,0.8904826,0.1409878,0.2193232,-0.1226796,-0.3641526,-1.3233950,-0.0589117,-0.3634896,-0.0205757,-0.4283373,-0.2808934,0.7373323,0.1809095,-0.4902934,0.2025930,-0.4281223
-0.8524338,0.4163124,0.3683645,0.0081648,-0.7086514,0.6227741,0.3777421,0.2346411,-0.0958867,-0.2817231,-1.1261894,0.9336528,0.1128972,0.4041792,-0.1419957,0.1103205,0.3326452,0.7245463,0.2276675,0.4749083,-0.1874354
-0.4387527,0.6403272,0.3993677,0.3664520,-0.8063536,1.1679958,0.8599232,0.3377411,-0.1520420,-0.6926257,-1.0522252,-0.4529327,0.1293562,0.6812983,-0.0041208,0.0336439,0.2911727,0.8809983,0.5933872,0.4036686,-0.2046019
-0.5819517,0.7176563,0.8911672,0.4673448,-0.6822057,1.2177761,0.8181414,0.4437705,-0.1474519,-0.3036890,-1.0034688,-0.4529685,0.3167740,0.3560805,0.0306321,0.0951410,0.4286023,0.8955663,0.5253977,0.6700034,-0.2402500
-0.6527452,0.6701858,1.0152797,0.5629011,-0.3637932,0.6823587,0.9137572,0.4771006,-0.0246290,-0.1343002,-1.1949050,0.1889489,-0.0469423,0.5919753,-0.2443180,-0.1616701,0.3165837,0.8545737,0.4899416,1.0457045,-0.3148755
-0.8678579,0.7936649,0.5364282,0.4202523,-0.9131227,0.4222678,0.8149311,0.4606906,-0.6520447,-0.1915063,-1.2280723,0.2491787,-0.2793166,0.1039989,-0.3256666,-0.0463266,0.4989625,0.6610166,0.1560659,0.5566670,-0.3637352
-0.9044402,0.9271939,0.4113809,0.2977935,-0.4982557,0.7384307,0.8334496,0.3251193,-0.4529046,-0.1107139,-1.1139172,-0.8655146,-0.2191359,0.2998362,-0.1823585,-0.2004667,0.2897251,0.4548493,0.0852628,0.5528712,-0.6204828
-0.7746739,0.9252660,0.6838083,0.5576727,-0.4841584,0.2737528,0.8192678,0.2882826,-0.2065824,-0.0164168,-1.0236456,-0.2416445,0.1036841,0.8016438,-0.4528767,-0.3691664,0.0967801,0.9821140,-0.2163136,0.4922414,-0.2522966
-0.5282791,0.8314151,0.9659457,1.2566041,-0.6926321,0.5543011,1.7167282,0.3801259,-0.0697851,-0.0391698,-1.1609592,-0.1152475,0.5322204,1.3639964,0.2180840,0.0611804,0.4029434,1.5056170,0.0271664,1.1269588,0.2996070
-0.1980526,1.2615411,0.6200297,0.7989219,-0.6423680,1.5680748,1.6225580,0.4020889,0.0069655,-0.2596122,-1.1588778,-0.6463757,0.5816923,1.6947836,-0.2931545,-0.1073869,0.0915874,1.2685086,0.0661561,1.0951949,0.0348515
-0.5780133,1.4216053,0.8908212,-0.0496838,-0.8446691,0.6219493,1.0572408,0.4041923,-0.7916803,-0.2708148,-0.8862634,-0.1628505,0.6066440,0.8633203,-0.1544127,-0.4450225,0.1832090,0.7753586,-0.5144773,0.4741830,-0.1298842
-0.8664193,0.7311439,1.0624021,-0.2582467,-1.1401864,0.3107578,0.8286006,0.3806031,-0.7246596,-0.2277336,-1.1669623,0.7849119,0.3615020,1.0784817,-0.0002904,-0.3140888,0.2824115,0.8813819,-0.6552277,0.6830542,-0.0440348
-0.4734383,0.1580152,0.7849218,0.2376187,-1.3706887,0.1306967,0.3053215,0.4570472,-0.6301633,-0.2546329,-1.1470938,-0.9411227,0.1900246,0.9676272,0.0343993,0.3265363,0.6107094,0.7190957,-0.2339910,0.6080451,-0.0358209
-0.6566443,0.2212116,0.5318960,0.2259773,-0.8249960,-0.3619549,0.0662371,0.5589434,-0.5605507,-0.2295376,-1.1047794,-1.5159130,-0.2119585,0.5030028,0.4135130,0.2409386,1.0512987,0.2321888,0.1544994,0.8522153,0.0547794
-0.7824344,-0.1323158,0.0263576,0.0073517,-1.0571016,-0.2013116,0.3163877,0.4299961,-0.1763346,0.0962750,-1.0543811,-0.4251318,-0.0644307,0.2510906,0.1824933,-0.0074641,0.4515558,-0.0885086,0.3335129,0.7164748,0.0304430
-0.8251522,-0.1426914,0.2540085,0.0264086,-1.3638183,0.2514909,-0.0851318,0.3807974,-0.4356509,0.2566991,-0.9947360,-0.4467120,-0.1439579,0.2168996,0.0714670,-0.3889112,0.3800117,-0.1036695,0.5821733,0.6036385,-0.3501592
-1.0443205,-0.0786536,-0.2986271,0.1137414,-0.8573787,-0.1884032,-0.3600648,0.4372960,0.1381172,0.1696567,-1.1386918,-0.7713718,-1.0029279,-0.7887960,0.1271332,-0.2258391,-0.4423195,-0.5584489,0.3500232,0.2195860,-0.5570521
-0.9022231,-0.3542682,-0.3624460,0.2255219,-0.9607494,-0.0153693,-0.4466999,0.3549952,-0.4694786,-0.0631347,-1.4663687,0.1123733,-0.6913576,-0.2364465,-0.2167688,-0.3917777,0.1079015,-0.1163608,0.2015340,0.1011671,-0.2666825
-0.8055615,-0.2048407,-0.1678490,-0.4265380,-1.2625936,0.3220706,-0.0229561,0.4240136,-0.9831475,-0.0804094,-1.2903255,0.2027133,-0.2476146,-0.2085767,-0.5321002,0.0999454,0.5855345,0.3715732,0.4057266,0.7149606,0.1669807
-1.3849679,0.4561775,-0.2737880,-1.0721892,-1.2809541,0.3694694,-0.0342084,0.4043403,-0.7491446,-0.1366882,-0.9950428,0.0921375,0.6877020,-0.1099580,-0.4404762,0.3943346,1.3353035,0.6066386,0.3637108,1.6156723,0.3695785
-1.7435324,0.2220567,-0.2264793,-1.3066074,-1.2293535,0.7592741,0.4582883,0.3059294,-0.5471991,-0.0234819,-0.9824848,0.8677093,0.3938978,0.1101984,-0.8170379,0.3291054,1.4789507,0.5958785,-0.1323745,1.3046683,0.4989512
-1.4951259,0.1088688,0.0129532,-1.3974463,-1.6629527,0.6031895,0.3609324,0.2862871,-1.4752207,0.0346467,-1.2731893,1.8236479,0.4761736,0.5397059,-1.2377032,0.0602749,1.1394089,0.6134284,-0.1866393,1.0577297,0.5056791
-1.2139744,0.2531066,-0.4381348,-0.9073933,-1.4995399,0.9380356,-0.0913143,0.2694352,-1.0045793,-0.2842465,-1.1930643,0.3990154,0.3126884,0.3309517,-1.3085399,-0.0847231,1.1692464,0.7709899,0.0437849,0.6209398,0.2415793
-1.4326322,-0.0761434,-0.6899987,-0.4877686,-0.9499173,0.6007357,-0.2990341,0.2372962,-0.8453334,-0.5549196,-1.1363146,-0.3138702,0.0898827,-0.4897574,-1.4069573,-0.1198959,1.1701301,0.0789046,-0.2774738,0.7353953,-0.0119955
-1.7767086,-0.0417012,-0.5442498,-0.8305873,-1.2253002,0.9725491,-0.1105990,0.1894671,-0.8619009,-0.1143354,-1.4739932,0.6752791,-0.0180136,-0.6033470,-1.2705368,-0.3685403,0.2398533,-0.2889650,-0.5293002,0.3000886,-0.5185707
-1.3928987,-0.2267299,-0.3275307,-1.4030544,-1.4387029,-0.0601447,-0.5593742,0.1386062,-1.2283170,-0.5304010,-1.6121835,-0.1228060,-0.6592785,-0.6493661,-0.6768737,-0.4051056,0.3777407,-0.0441412,-0.2636665,0.1737292,-0.4370284
-0.9532852,0.2291225,0.1669779,-0.6462840,-0.4307256,0.3063959,0.2297764,0.2872394,-0.9560288,0.2244595,-1.4220657,-0.8246065,-0.0723498,-0.2338026,-0.7583870,-0.4588288,0.7578908,0.3032118,0.0177991,0.7030457,-0.2078267
-0.5692652,0.4884521,0.3193357,-0.5579756,-0.4176134,0.5660848,0.4517159,0.3956612,-0.3686070,-0.0172850,-1.5988196,0.3795919,0.0086707,0.0987898,-0.6458986,-0.3080033,-0.2776742,0.2437439,-0.6893567,0.4884752,-0.3680158
-0.7639626,0.3009044,-0.1929641,-0.0911654,-1.2368826,0.1874416,0.2982641,0.4043499,-0.7803871,-0.6222411,-1.1954138,0.6392609,-0.4717825,0.1296343,-0.4200847,0.0085787,-0.0565192,-0.0469612,-0.6995021,0.4531058,-0.3186599
-0.8043815,0.4120109,-0.2581817,-0.1941564,-0.9446476,-0.1186538,-0.1864816,0.4196368,-0.4711411,-0.4682051,-0.9630570,-0.4037805,-0.0643518,0.0480981,-0.4472774,0.2769524,0.7282740,0.1685833,0.0140411,0.6858122,-0.1061577
-0.6557381,0.7188889,-0.4869685,-0.3866483,-0.9233910,-0.2328371,-0.2590849,0.3459467,-0.1916382,-0.1090711,-1.0639459,0.1393464,0.2996863,-0.0118084,-0.4602384,0.3628776,1.0548416,0.4056219,0.2760073,1.0493681,0.0447476
-0.7808948,0.6034730,-0.5888383,-1.6381762,-1.0230943,-0.0316599,0.0683293,0.2567832,0.0214189,-0.0860179,-0.9321284,1.4707564,0.3304865,-0.0969786,-0.8516454,0.2615895,1.0965233,0.5193439,0.5500095,1.1844965,0.4274885
-1.4183614,0.0032017,-0.5517634,-2.0516846,-0.9341509,0.5110917,-0.3675425,0.2102647,-0.5354045,-0.2594682,-0.9146816,0.3754038,0.4401583,0.1469816,-0.9069327,0.5849509,1.0914433,0.3041461,0.5271603,1.0595527,0.1928090
-0.6952098,0.2110064,-0.6913431,0.1443784,-0.3953313,0.3543907,-0.5271057,0.3803357,-0.4114505,0.1903155,-1.1072789,-0.0481176,-0.1320137,0.1600168,-0.3519890,0.7920989,1.0833361,0.0932717,-0.0292471,0.9219810,0.1530325
-0.3678564,0.3142070,0.0735175,0.5522462,-0.0049595,0.3611687,0.0660179,0.4907823,0.4734425,0.1366346,-1.1883847,1.4236630,0.7010977,0.1732437,-0.3081566,0.5789486,0.5674202,0.3199605,0.2874332,1.1246837,0.1854924
-0.3613187,0.1072728,-0.0429622,-0.0546028,-0.2968567,0.0435642,-0.1658852,0.5294799,0.4182359,0.2621308,-1.2864286,0.7638868,0.4077257,0.1383765,-0.0372167,0.2768478,0.1954857,-0.0742352,0.1349729,0.9175488,0.0990868
-0.9606177,-0.1433989,-1.1724786,0.0132371,-0.2794464,-0.2580790,-0.9233259,0.4146419,-0.2803083,0.2316610,-1.3257153,-0.8140870,-0.1410684,0.3348882,-0.1614696,0.7024426,0.9453910,-0.4089483,0.8110231,1.2612278,-0.1304724
-0.8857459,0.2134410,-0.5916483,0.5396945,-0.1413129,-0.9324018,-1.2408040,0.4384162,0.0300555,0.2279459,-1.2491691,0.2044525,-0.4977239,-0.2561110,-0.3528748,0.7520757,0.7923057,-0.1364273,0.3638630,1.3413928,-0.1773095
-1.0753243,-0.2326537,-0.8369176,-0.1003849,-1.0130891,-0.0232021,-1.0202603,0.3498149,-0.6401548,0.2975607,-1.0300250,1.0471717,-0.3642095,-0.2705052,0.0552942,0.5757014,1.4804332,0.4150037,0.1845101,1.2513212,0.1907537
-0.7426904,0.3717681,-0.5082952,0.1365441,-0.4837790,0.1099200,-0.1397446,0.4640373,-0.1022784,0.1049470,-0.9949165,0.3069533,-0.0655555,-0.2001299,0.2226455,0.9470837,1.4448359,0.8642510,0.5920282,1.1044846,0.5996971
-0.6683542,0.1333332,-0.3700499,-0.0206371,-0.2605509,0.3877169,0.0075654,0.4756730,0.4793083,0.0722076,-0.9170520,1.0341610,0.2024375,-0.0601923,-0.3000687,0.8604102,1.6016349,0.2070730,0.7128997,1.1117967,0.6105077
-1.0074309,-0.7049444,0.0168475,-0.5157937,-0.4796041,0.1879977,-0.5288693,0.4722545,0.1418610,0.0510418,-1.1506013,2.0590868,0.1300725,0.1455912,-0.6630855,0.1866789,1.2999296,0.4470026,0.4830261,0.8958112,0.4351709
-1.1612055,-0.7400251,-0.5060673,-0.1379614,-0.2714509,0.0368279,-0.4955430,0.4495316,0.1515372,-0.0468800,-1.2157938,0.5973127,-0.6890138,-0.2213623,-0.7192420,-0.3871394,0.7664674,0.2986929,0.1092562,0.5275815,0.0909557
-1.2436409,-0.2816575,-0.4270153,-0.0900770,-0.8792955,-0.0486637,-0.6887002,0.3654363,-0.7029427,-0.7995935,-1.3802819,0.7522722,-0.4232691,-0.4611846,-1.1638621,-0.4961665,0.7115393,-0.0262334,-0.3772560,0.3634932,0.0002187
-0.9936970,0.2249840,0.0268200,-0.3200502,-0.8478265,-0.1324039,-0.0863918,0.2593748,-1.2890408,-0.5211369,-1.4181975,1.2925372,-0.1922846,-0.3062089,-0.9590954,-0.5821922,0.4611896,0.3291708,-0.1947142,0.0517969,0.1285804
-0.6521595,0.4259834,0.0832786,-0.2249017,-0.4787727,-0.1950175,0.3584639,0.3169905,-0.8087065,-0.5534233,-1.6069584,0.0009755,0.1648596,0.0392887,-0.5496194,-0.6862050,0.3650008,0.9667310,-0.0827163,0.0992937,-0.1197142
-0.5581739,0.6573160,0.8305973,0.1652482,0.2085650,0.4291311,0.5634061,0.5023424,-0.2382135,-0.4624657,-1.7667676,-1.0335189,-0.3227825,0.2488004,-0.5345935,-0.1292475,0.2580491,1.0774878,-0.0409908,-0.1727105,0.1638135
-0.3852994,0.9012718,0.9811561,0.5041698,0.5743416,0.2149784,0.9112773,0.6682329,0.5529253,-0.0215908,-1.6709164,0.4054165,0.5352867,0.6192859,0.0948029,0.1896939,0.8320556,1.0831375,0.4041339,0.5969912,0.3500432
-0.2411964,1.0591916,0.8813866,1.3353537,0.2482045,-0.0834728,0.7296475,0.7971041,0.8252838,0.0623731,-1.2201704,0.5734326,0.7095355,1.2636921,0.6463010,0.4906790,1.2567110,1.1324582,0.5865837,0.6432555,0.0590326
0.0041276,0.9023535,0.5256969,1.7882913,0.3429299,0.5027952,0.7135767,0.8312010,0.3503120,0.2507748,-0.9886923,0.8643801,-0.0744215,1.1940364,0.8668143,0.6722245,1.1886390,1.2845720,0.9247532,0.5230795,0.6550635
-0.3322657,0.5719181,0.1584226,1.2213938,0.1645203,0.6456593,0.0314122,0.9079595,0.7758253,0.4243330,-1.1242319,1.0372696,-0.0805909,1.0411035,0.7613642,0.4086029,1.0070632,0.7459007,1.0062404,0.7810231,0.5967540
-0.5149881,0.5281802,0.2320761,0.8491186,0.3698214,-0.2426797,0.0349994,0.8258479,0.4032487,0.1207335,-1.3722811,0.9502481,0.3298711,0.8794294,0.8571077,0.7077604,0.8716348,0.6273417,0.7598796,0.5118634,0.6431401
-0.3337357,0.5672018,-0.1582163,1.0327727,-0.0968494,0.0512100,-0.1901965,0.7590966,0.7435345,-0.2715928,-1.1489294,-0.1001884,-0.1784233,0.5587021,0.8764530,0.7696112,1.2843747,0.6158620,0.8640460,0.4920694,0.6110209
-0.5913141,0.8092184,-0.5419801,1.3933251,-0.3409850,-0.1366072,-0.3907754,0.6796595,0.7855788,0.1621295,-1.2592642,-0.4386208,-0.3791313,0.2434943,0.7842934,0.0772384,0.9807491,0.4414431,0.5910653,1.0696520,0.6568134
-0.8697140,0.2083901,-1.0634838,0.8171567,-0.7992920,-0.7073746,-0.3154164,0.5616449,0.2526560,0.1792055,-1.2803230,0.4848199,-0.0240642,0.1097778,0.6448657,-0.0460482,0.7699000,0.5374615,0.3070577,0.5995651,0.4363361
-0.6289346,0.1298751,-0.8616253,1.4722710,-0.3149600,-0.5598749,0.0939845,0.6700819,0.0249094,-0.0756318,-1.4850692,0.5661849,-0.4122426,0.1982606,0.7236190,-0.0515142,0.8848933,0.6237049,0.7924640,0.9646206,0.4578787
-0.5999413,0.6029016,-0.3923658,1.2236362,-0.4094508,0.0812469,0.4461871,0.7679671,-0.0403484,-0.1419893,-1.4960272,-0.2142491,-0.4886056,0.3377490,0.5184563,-0.3782685,0.8665909,0.7481011,0.1745032,0.5869033,0.0932511
-1.1820199,0.0361366,-0.2731478,0.1605428,-0.5211890,0.3371749,0.0124123,0.6470830,-0.8143681,-0.3072542,-1.5317229,0.5551276,-0.1291490,0.0322686,-0.4027411,-0.7628230,0.0394230,0.5309007,-0.2225440,0.0920620,-0.0402548
-1.2196535,0.2519245,-0.0823735,0.1072737,-0.5686432,-0.2269559,-0.3703761,0.5202608,-1.0369565,-0.5552863,-1.7292327,0.4415312,-1.1166508,-0.1710776,-0.4922458,-0.8743498,-0.3095484,-0.0785553,-0.5876742,-0.5173647,-0.2745825
-0.7031332,0.4973977,-0.9452819,0.1502536,-0.9709170,-0.5873404,-0.1232268,0.5341682,-0.8684335,-0.7454697,-1.5515020,-0.5673264,-1.0280179,0.0208567,-0.1248853,-0.8686221,0.3751461,-0.0586348,-0.5322369,-1.0354577,-0.3794938
-0.6105319,-0.0129035,-0.8679312,0.3035494,-0.3632100,0.1074443,-0.2255550,0.5242777,-0.7852815,-0.1339578,-1.4004645,-0.4342026,-1.2659036,-0.0361704,-0.1894638,-0.5425768,0.1955581,-0.3273788,-0.6878696,-0.7474076,-0.7338549
-0.7090598,-0.4140186,-0.5145952,0.8634060,-0.3908682,-0.3073725,-0.5609067,0.6849867,-0.5258602,-0.2679110,-1.3758247,0.4681312,-1.3127391,-0.2052540,0.1967428,-0.3153524,0.2352754,-0.3815585,-0.7172445,-0.1502700,-1.0095356
-0.7513232,-0.0979534,-0.1569195,0.4931290,-0.2783786,0.1163280,-0.2217938,0.8477728,-0.0826014,-0.4573132,-1.3078463,-0.0828905,-0.6061925,-0.2314923,0.4093598,-0.6654588,0.7651517,0.0041653,-0.3976996,-0.0682608,-0.6805666
-0.9080939,0.0650583,-0.1852135,0.3473270,-0.3951355,0.3519146,0.1238132,0.6678630,0.3423339,-0.3613596,-1.2044294,0.5083463,-0.2510099,-0.1173327,0.5534943,-0.0330105,1.0940824,-0.3706355,-0.0423763,-0.0612869,-0.4927100
-0.8986802,0.0389557,-0.3934429,1.0805829,0.0776149,0.0935290,-0.4311663,0.6515364,0.5400360,-0.1153999,-1.1619549,1.2132126,-0.8092270,-0.1932157,0.4670858,0.2428494,0.7009917,-0.3941624,0.5595527,0.5047941,-0.3041257
-0.8924404,-0.1105977,-0.6154720,1.2106216,0.2143328,-0.5975251,-0.4056180,0.8093578,1.3383763,0.0033360,-1.2039521,0.1290554,-1.0899620,-0.2625077,0.7144634,0.2583395,0.1126834,-0.3401088,0.3043781,0.4000093,-0.1213542
-0.4912876,-0.0118750,-0.8859603,0.9443749,0.8868375,-0.9691344,-0.4123578,0.8135809,1.4708248,0.3232676,-1.2734915,-0.0354502,-1.1095523,-0.7267284,0.8900669,0.3533893,0.1693412,-0.2283322,0.5548943,0.7823097,-0.3497021
-0.3785805,0.1902842,-0.9944673,1.3601576,0.0832459,-1.1039380,-0.7900967,0.7873563,0.8126405,0.0947493,-1.6300836,0.1940522,-1.1850241,-0.9922798,0.7108157,0.5172328,0.3107429,-0.3447081,0.3107707,0.1283679,-0.3895932
-0.6672442,0.1952769,-0.7167954,1.4112341,-0.4526850,-0.6769471,-0.7980155,0.8032832,1.0392894,-0.0555540,-1.5475392,0.2806242,-1.2064909,-0.9545720,1.0489891,0.2548366,0.6661454,0.1361040,0.4174022,0.1333250,-0.0415640
-0.4904694,0.1664381,-0.3986273,0.8200254,-0.1853660,-0.3996254,-0.8293597,0.9187810,0.9043024,0.3787086,-1.2371773,-0.1683212,-0.8675084,-1.1601312,1.2687820,0.6378931,1.9139780,-0.2835922,0.8913268,0.8326310,-0.2553115
-0.6493278,0.0920496,-1.0260595,0.5454004,-0.5415014,-0.3944733,-0.5741090,0.9813770,0.6175306,0.4860024,-1.3404769,-0.7940566,-1.1639837,-0.9590446,0.6964552,0.8777696,0.6929427,-0.5223769,0.8632818,1.1894741,-0.3343007
-0.8982898,-0.6124000,-1.6054858,0.2234392,0.1081693,-1.4516796,-0.5845346,0.7344115,0.1338209,0.0301389,-1.4624792,-0.4357969,-1.3501295,-0.3667394,0.0640839,0.1774861,0.3147778,-0.3491590,0.1306032,0.7825993,-0.6628514
