F3,Fz,F4,Fc5,Fc1,Fc2,Fc6,T3,C3,C1,Cz,C2,C4,T4,Cp5,Cp1,Cp2,Cp6,P3,Pz,P4
-0.7825329,-0.4165320,-1.4654303,-0.4284269,-1.0339581,-1.2010258,-0.1927558,-1.4693242,-0.5696452,-1.0974853,-1.4189285,-1.4260404,-1.1232312,-1.0909121,-1.0549210,-0.8774975,-1.4793622,-0.4868908,-0.9796300,-1.1011343,-0.9025679
-1.0209030,-0.7748597,-1.3853427,-0.3896346,-1.3522756,-1.3301942,-0.1264856,-1.4576749,-1.0773468,-1.4279695,-1.6636723,-1.6570405,-1.3985035,-1.6352786,-0.3214648,-0.9123635,-1.6944031,-0.8462486,-0.8115892,-1.1830621,-1.4598352
-0.8918336,-0.6651459,-1.3820837,-0.3043153,-0.7980277,-0.9564592,0.0025300,-0.8890013,-0.2846604,-1.2759184,-1.6011417,-1.6117218,-1.3325617,-1.6412343,-0.3022175,-0.5968025,-1.1718247,-0.6682689,-0.5148644,-0.7682578,-1.1215019
-0.8336509,-0.7131199,-1.2663363,-0.3947402,-1.0948156,-1.0922425,-0.1652445,-1.6473604,-0.4526536,-0.8318559,-1.6844122,-1.3618469,-1.2961291,-1.5531088,-0.7841192,-0.9146287,-1.3659462,-0.9316244,-1.0114036,-1.1396205,-1.3376176
-0.7095853,-0.7415025,-0.8944945,-0.3760481,-0.7902381,-1.5849444,-0.0984375,-1.8418291,-0.4274464,-0.7282599,-1.3953902,-0.9932941,-1.0714616,-1.1001148,-0.6621696,-0.8748624,-1.4043183,-1.0974724,-1.0636876,-1.0304545,-1.4459403
-0.7463827,-0.7950120,-0.8176436,-0.3026679,-0.3981360,-1.5324099,-0.2621570,-1.5324663,-0.1962208,-1.0698838,-1.5329556,-1.3541036,-1.3088429,-1.4733908,-0.8228202,-0.8761651,-1.3229581,-1.1944933,-0.8356449,-1.1829722,-1.5232775
-0.7504353,-0.8714917,-0.6635479,-0.3497807,0.1264597,-0.7897941,-0.4099658,-1.6633903,-0.5539657,-1.3776828,-1.5560268,-1.3877621,-0.9792230,-1.5972126,-0.9737579,-1.1124370,-1.2555503,-1.1678267,-1.2626375,-1.4019046,-1.8122647
-0.8661329,-1.1192125,-0.8956634,-0.5533555,-0.4640118,-1.2362652,-0.0975545,-2.0056760,-1.1690916,-1.5363772,-2.1046364,-1.2209244,-0.8976660,-1.6908743,-0.8702555,-1.3593278,-1.6401116,-0.8503612,-1.2684973,-1.6121898,-1.7703246
-0.9650667,-0.6516282,-1.1373689,-0.3322425,-0.5648196,-0.9415928,0.1072547,-1.9271104,-0.9288447,-1.6284282,-1.9963059,-1.4848675,-0.7023482,-1.3566812,-0.5002099,-1.0652902,-1.1118923,-0.3374540,-0.9957643,-1.3733307,-1.1229888
-1.0337267,-0.4005729,-1.0510259,-0.0796416,-1.2794238,-0.5230135,0.0039870,-1.5321721,-0.6791720,-1.2985666,-1.3435141,-1.0861820,-0.8740563,-1.2197253,-0.5291030,-0.5798286,-0.5424470,-0.3291513,-0.4183408,-0.8376166,-0.4416957
-1.0642675,-1.0190871,-1.0195216,-0.7790269,-1.8638679,-0.6023074,-0.0410601,-1.8119642,-0.7583000,-1.0821671,-1.0732446,-0.6626837,-0.7188904,-0.9319833,-0.4862485,-0.6067107,-0.1567805,-0.3323438,-0.7440945,-0.4083862,-0.1056521
-1.1384702,-1.1094116,-0.8655106,-0.6653262,-1.5485824,-0.8692139,0.0031161,-1.9881952,-1.1825358,-1.0353343,-1.2222255,-0.8583992,-0.8651881,-0.8133357,-0.9922131,-0.9906915,-0.3300662,-0.5598695,-0.8169788,-0.6222299,-0.2546062
-1.0326641,-0.5746255,-1.1581295,-0.7495191,-0.8824247,-0.5636650,-0.0601128,-1.7466933,-1.0977103,-0.9306167,-0.8376378,-1.0095384,-0.7920647,-1.3110329,-1.0291033,-0.8147029,-0.2237565,-0.4787835,-0.6365843,-0.8207961,-0.3440800
-0.8945557,-0.7212172,-1.1945087,-0.8483219,-0.2122488,-0.7806408,-0.0841660,-1.8039875,-0.6473606,-0.5558663,-1.0132085,-0.8638367,-0.8729509,-1.3482009,-1.0655484,-0.6935357,-0.4117393,-0.3170774,-0.6056981,-0.5837249,-0.1640208
-1.0064310,-1.1247755,-0.8184346,-0.3931565,0.0477940,-0.8341776,0.0436084,-1.7337993,-0.5693703,-0.6485943,-1.1520382,-0.3477122,-0.9408134,-1.2083846,-0.7466261,-0.2516921,-0.0043879,-0.0435457,-0.3132249,-0.4128417,0.0817765
-0.9042531,-0.5956843,-0.7533581,-0.2218530,0.5381148,-1.1230599,0.3189436,-1.6272240,-0.4917282,-0.2735283,-1.0023696,-1.2365837,-0.5474133,-0.7606142,-0.3625855,-0.1497570,0.2073386,0.3914476,-0.2839049,-0.3927673,0.1651973
-0.7418102,-0.6198579,-0.6193811,-0.2237722,0.2242239,-1.1274757,0.5804611,-1.2426405,0.2349983,-0.2471344,-1.0472903,-0.8996542,0.1148079,-0.1797239,0.1890057,0.0984151,-0.1845980,0.5597043,-0.3499706,0.0363444,0.3838955
-0.6731226,-1.3048574,-0.3957274,-0.2391444,-0.6669371,-1.3515753,0.6059425,-1.1223543,-0.2141475,-0.2611202,-1.1812464,-0.7265229,-0.0140589,0.1773604,-0.2493482,-0.4384201,-0.4295329,0.3902856,-0.2805937,-0.1765631,-0.0937750
-0.7844382,-0.9608099,-0.4220541,-0.4615255,-0.4535642,-1.0536251,0.5287426,-1.2159245,-0.8176782,-0.6422455,-1.1266208,-0.8608450,-0.1011508,-0.2517179,-0.7229818,-0.6717241,-0.2491828,0.1251728,-0.5419675,-0.4761142,-0.3827305
-0.9470850,-0.7974869,-0.5492628,-0.6709186,-0.9417197,-0.5740974,0.1703644,-1.8126951,-0.8429329,-0.5699631,-0.6698100,-0.7947168,-0.2250814,-0.6034850,-0.7895631,-0.3635833,-0.4867833,-0.5240213,-0.8915109,-0.7042090,-1.1729470
-1.1811163,-1.0095258,-0.7839963,-0.6350189,-1.2777722,-1.3549380,-0.2394710,-2.0384386,-0.6649571,-0.5360614,-0.7467198,-0.6984588,-0.6086517,-1.2885066,-0.9865527,-0.1805932,-0.4256979,-0.6513499,-1.0297559,-0.7513524,-0.8733730
-1.3039905,-1.2465988,-1.1482668,-0.6616943,-1.1279937,-1.4908512,-0.2246342,-1.7044176,-0.9355456,-0.6758919,-0.6613540,-0.8996842,-0.4526293,-1.5108839,-1.0127493,-0.6449221,-0.5916361,-0.8646360,-0.8572409,-0.8602483,-1.1622740
-1.3208628,-1.1056927,-1.4979082,-0.9965215,-0.9721006,-1.4971932,-0.4314793,-1.8072332,-1.2687428,-0.8527490,-0.8892251,-1.1178619,-0.7015957,-2.1769555,-1.6072323,-0.8814501,-0.6411347,-1.2550029,-0.8759694,-0.9214545,-1.4921038
-1.4059976,-1.9158512,-1.4772043,-0.9105923,-1.0016074,-1.3491181,-0.5177152,-1.9940773,-1.5330598,-1.1169679,-1.0781745,-1.4369735,-0.9543778,-2.0953298,-1.5958382,-0.5742997,-0.6441677,-1.2045275,-1.0846974,-0.9184499,-1.4886484
-1.3186916,-1.8221426,-1.8313369,-0.9904597,-1.1990861,-1.2310930,-0.5173925,-2.0593369,-1.3743103,-1.2762026,-0.7663084,-1.2788757,-0.9151992,-1.7613802,-1.2208198,-0.8675186,-0.4641084,-1.1064065,-1.2972770,-0.9566416,-1.1899836
-1.1736313,-1.3870190,-1.4875755,-1.2242286,-0.9027556,-1.3633350,-0.4198171,-1.7383103,-0.8799968,-1.0193006,-0.5136760,-1.8141339,-0.8373544,-1.2626736,-0.8598443,-0.6971045,-0.7568219,-0.9352409,-0.9456286,-0.2671127,-0.9702235
-1.2781638,-0.9032982,-1.6117462,-1.2465129,-0.8600326,-1.1190788,-0.1027564,-1.9164371,-1.1554097,-0.3801485,-0.4991565,-1.0854313,-0.3124577,-1.2358942,-0.9823748,-0.5708093,-0.5007824,-0.6163450,-0.4476087,-0.2456806,-0.5594670
-1.3038921,-1.3512938,-1.3490576,-0.9275472,-0.7472085,-0.9736105,-0.1230270,-2.2263794,-1.1421330,-0.6823383,-0.7284399,-0.6893702,-0.1902450,-1.1212783,-0.6783904,-0.6191951,-0.4076526,-0.3075813,-0.3796521,-0.3316209,-0.4055451
-1.2786409,-1.6027954,-1.1722549,-0.8995961,-1.0073308,-0.9295747,-0.3137115,-1.9650425,-1.1839213,-0.5011333,-0.9577948,-1.1506283,-0.0922188,-1.1905445,-0.6158393,-0.2852098,-0.3297332,-0.2904479,-0.3069516,-0.3485931,-0.0592489
-1.2595671,-1.3411894,-1.3583876,-1.0240741,-1.3720185,-0.6653517,-0.4363084,-1.8468200,-0.9676421,-0.8108608,-1.1009635,-1.3470303,-0.3740193,-1.4418241,-0.5738410,-0.1669027,-0.3064432,-0.7502307,-0.4767515,-0.5304512,-0.5882206
-1.3574938,-1.7120408,-1.1065556,-0.9699787,-0.6495720,-1.0233930,-0.2436696,-1.9107417,-0.9672717,-0.6184626,-0.8698072,-1.2573574,-0.5701452,-1.3101983,-0.2400412,-0.2477652,-0.2651649,-0.3371080,-0.4048493,-0.3064157,-0.1515349
-0.9648100,-1.7909830,-1.2166286,-0.3720174,-0.4918332,-1.3224125,0.0600723,-1.5190525,-0.2970874,0.0825972,-0.7646670,-1.2144270,-0.4061327,-0.9795337,0.6711295,0.0868898,-0.1488418,0.2289764,0.6146410,0.2095265,0.5128403
-0.3876667,-1.2535574,-0.7526691,-0.1280119,-0.0920823,-0.7190616,0.3103909,-0.6100337,0.5169380,0.4766097,-0.5419811,-1.4854357,-0.1111723,-0.3205663,1.2239213,0.5063230,0.3091043,0.4433278,0.7864838,0.6944920,0.7799439
-0.2553187,-1.2867978,-0.5049554,-0.2174354,0.8321677,-0.7459000,0.5477267,-0.4746462,0.8178072,0.6497186,-0.1108064,-0.8235644,0.0339798,-0.1174581,1.3718108,0.4608680,0.6220469,0.7094932,0.8208361,0.9999294,0.6443832
-0.5492188,-0.9332393,-1.1868508,-0.7187213,-0.5493731,-1.1358755,0.1657234,-1.0551732,0.4700146,-0.1453988,-0.1881222,-0.4498635,-0.0196896,0.1746593,0.5875438,0.1394670,0.6041212,0.3389471,0.5477623,0.8129273,0.3728083
-0.7897869,-0.9923416,-1.5194701,-0.6116393,-0.3731698,-0.8834583,-0.4221219,-1.4169453,-0.5222333,-0.4520037,-0.2751146,-0.9674526,-0.1079094,-0.4200212,0.1511405,0.0397153,0.4012738,-0.2062058,0.6525924,0.6180338,0.0934439
-1.0351064,-1.2096992,-1.7103848,-0.9956009,-0.7513593,-1.1776780,-0.5833673,-1.9746846,-0.9273605,-0.4453482,-0.5652594,-0.9329894,-0.3427316,-0.7906676,-0.3697159,-0.2560178,0.1151671,-0.5231478,0.2173370,-0.1811103,-0.4921694
-1.2119228,-1.8669006,-1.5865827,-1.2036189,-1.2571323,-1.2709234,-0.5789441,-2.1734881,-1.3785414,-1.0283689,-0.7526863,-0.8961506,-0.8100488,-1.4117612,-0.4685302,-0.5545623,-0.0991599,-1.0182049,-0.3297905,-0.6007197,-1.0512041
-1.2192206,-1.5762370,-1.5913073,-1.2215889,-1.0445288,-1.0235937,-0.3475498,-2.2380562,-1.3891809,-0.8654200,-0.3401954,-1.0715821,-0.6997162,-1.4413534,-0.5639645,-0.5056688,-0.2942449,-0.7417268,-0.1063670,-0.4657253,-0.9325482
-0.9918944,-1.3041117,-1.1737084,-0.7808070,-0.5659159,-0.2449897,-0.0970455,-2.0675421,-1.1434745,-0.5464202,-0.7745281,-0.9760983,-0.5119978,-0.8782092,-0.8189971,-0.5180961,-0.4346954,-0.5054952,-0.1374800,-0.3639183,-0.8297755
-0.7278756,-1.2100068,-1.1591028,-0.8944561,-0.4319898,-0.3610528,-0.0960591,-1.9331259,-0.6377211,-0.3732475,-1.1883180,-0.8666275,-0.5946791,-1.0813875,-0.3319155,-0.2962925,-0.5974504,-0.8806043,-0.2920690,-0.5850162,-0.8917556
-0.4822327,-0.5077858,-0.7536112,-0.8541222,-0.2951936,-0.3508495,0.0979134,-1.1361266,-0.0035152,-0.2989618,-0.8268891,-0.6745318,-0.7058581,-1.1330291,0.0624781,-0.0918835,-0.2378896,-0.5129622,-0.1065615,-0.2861569,-0.7552672
-0.3246204,-0.3467968,-1.0939739,-0.6056143,-0.5203526,-0.2585691,-0.1862405,-1.0849305,-0.3643967,-0.3213778,-0.7905476,-0.9021320,-0.4720639,-0.7141148,-0.4252407,-0.2317876,-0.3823927,-0.7483933,-0.3613420,-0.3851078,-0.7965747
-0.4463058,-0.3456248,-1.4417472,-0.5990449,-0.3778067,-0.6975721,-0.2166091,-1.5674294,-0.4877283,-0.4452145,-0.3996680,-0.9238834,-0.6639392,-0.7361557,-0.3884243,-0.5720283,-0.4127906,-0.7801448,-0.4010404,-0.5846748,-0.9813483
-0.3792433,-0.9250485,-0.6256541,-0.0794354,0.0586973,-0.6608865,-0.0647005,-1.6852428,-0.4094422,-0.4119111,-0.5615507,-0.9317499,-0.7939948,-0.5784217,-0.4330123,-0.6054774,-0.3577944,-0.5855787,-0.4566510,-0.6451243,-0.9977009
-0.3623165,-0.4971202,-0.5114107,-0.3967569,-0.6121331,-0.4960768,-0.0882975,-1.6160600,-0.3590805,-0.3957836,-0.8142427,-0.9800101,-0.4263503,-0.8378703,-0.0626264,-0.3275599,-0.3190698,-0.6493906,-0.0770312,-0.4986900,-1.2973735
-0.4668200,-0.0764348,-0.3726604,-0.5022174,-0.2510234,-0.3128763,0.1518314,-1.0784439,-0.2564776,-0.0896570,-1.0189559,-0.7740620,-0.0023753,-0.6273393,-0.3272909,-0.4190718,-0.3176362,-0.6651707,0.1618749,-0.5977833,-1.0881549
-0.5785560,-0.3524242,-0.2340461,-0.5511628,-0.6761876,-0.0038783,0.1765752,-1.0565478,-0.0152169,0.0563775,-0.9121552,-0.6372572,0.0039726,-0.2247797,0.3127595,0.0345503,-0.0654756,0.0243661,0.2862097,-0.2881669,-0.3004133
-0.3132452,-0.2894919,-0.0838424,-0.4986690,-0.6320382,0.3828340,0.4586400,-1.2696251,0.0113686,0.0914358,-0.8496724,-0.7396411,0.2360349,0.0474642,0.8541909,0.2790762,0.3517430,0.5066825,1.2193069,0.3959468,0.2080448
-0.1266550,-0.0558938,0.3300589,-0.1234628,-0.2093451,0.2076140,0.7785599,-1.0370606,0.7282124,0.1418354,-1.0161422,-0.6854955,0.7183481,0.3612741,1.3035201,0.5515273,0.4018089,0.3935031,1.2005042,0.6891680,0.7635885
0.0478381,0.0960848,0.3321456,-0.2194761,-0.1533658,0.1738820,0.7885053,-0.7783428,1.1847643,0.0242709,-1.0450218,-0.3928427,0.8366106,0.8293238,1.2207717,0.5562981,0.3211045,0.6274940,1.7759101,0.6261116,0.4119852
0.0392224,0.0814194,-0.1591641,-0.0912967,0.1307523,-0.3692522,0.4647706,-0.7610400,1.4284418,0.6180497,-1.2059323,-0.5231354,0.6831338,0.6047273,1.1476421,0.4000716,0.1684121,0.1928688,1.4689128,0.5336562,0.1890776
0.0698363,0.0445397,0.1018970,-0.2070578,0.6725014,-0.1134065,0.1966452,-0.6571131,1.1884718,0.1763476,-0.8852091,-1.0972128,0.0815378,0.2465686,0.7470176,0.1292280,-0.0320269,-0.1503003,0.7585704,0.2800932,-0.1026215
-0.2280610,-0.1756123,0.1348461,-0.3652037,-0.0450537,-0.2620429,0.1460012,-1.1783884,0.7630014,-0.3367707,-0.8539739,-0.8899751,-0.4948470,-0.1878032,-0.2000731,-0.4865956,-0.3269850,-0.6595794,0.1229516,-0.3081653,-0.6472248
-0.4630689,-0.3373483,0.2227297,-0.7129490,-0.5051517,-0.2410312,0.0733371,-1.4742495,0.5444705,-0.2397400,-1.0305718,-1.0258399,-0.6839556,-0.1855923,-0.6216390,-0.5271673,-0.4806844,-1.0011051,-0.3044727,-0.6458582,-1.0181880
-0.6647760,0.0528353,-0.3627386,-0.8624091,-0.8142324,-0.3238497,-0.1680600,-1.4881033,0.2574870,-0.8080657,-1.0073154,-1.3909510,-0.3418254,-0.3675561,-0.8652149,-0.4018283,-0.5252503,-1.0468918,-0.6575230,-0.6475412,-1.0739614
-0.7392482,-0.2032187,-0.3618112,-0.6728088,-0.3185034,-0.3889056,-0.2403113,-1.7198597,0.3700820,-0.4306774,-1.2064612,-1.1450682,-0.5406507,-0.8236153,-0.8933570,-0.2727725,-0.5396762,-0.9240810,-0.2424449,-0.2974246,-0.8652188
-0.9094913,-0.4592537,-0.4776757,-1.4245259,-1.6750132,-0.6729696,-0.2874190,-2.0704346,-0.2989463,-0.5516078,-1.5962206,-0.6137818,-0.3740048,-0.9679702,-0.9970556,-0.6245162,-0.7975343,-0.9670370,-0.4590231,-0.7199190,-0.6834937
-1.0365671,-0.4252887,-0.6891936,-1.4969208,-1.6762643,-0.5882753,-0.0353082,-2.3370922,-0.8130842,-1.3780129,-1.7748681,-1.0753915,-0.1528525,-0.7367025,-0.9051161,-0.6217982,-0.8446180,-0.5677055,-0.4605374,-0.9699432,-0.9268997
-0.7719616,-0.1227971,-0.2273721,-1.3430663,-0.5284961,-0.6341299,-0.0085095,-2.2079887,-0.6918159,-1.2420957,-1.9098535,-1.5891291,-0.1960387,-0.6963893,-1.0381024,-0.8678539,-0.7681370,-0.9386346,-0.3021667,-0.9815791,-1.1266366
-0.8712349,-0.5907622,-0.5201325,-1.2252986,-0.8948898,-0.4084064,-0.0708307,-2.2958415,0.1001104,-0.7179827,-1.5313997,-0.8773277,-0.5127916,-0.6203089,-0.7551525,-0.6922592,-0.8239437,-0.8181509,-0.5030340,-0.8736563,-1.0056462
-0.5279244,-0.3942163,-0.0348851,-0.6621770,-0.6194888,-0.2943752,-0.0653659,-1.8884115,0.3301999,-0.8361484,-1.0886054,-1.0373026,-0.3816706,-0.3336414,0.0713217,-0.1489811,-0.2921812,-0.4177789,-0.1284150,-0.1756358,-0.6269801
-0.6544849,0.1441803,0.1772902,-0.3341525,0.0960330,-0.5734307,0.2429399,-1.0295208,0.6995443,-0.0653671,-0.6150770,-1.1726063,-0.1960551,-0.5267949,0.6854830,0.3957960,0.0396161,-0.0412436,0.1748635,0.2996340,-0.3756547
-0.5419466,-0.1511548,0.0285956,-0.3608467,0.6904815,-0.4970435,0.2074808,-0.6938622,1.4189808,0.4853603,-0.6572864,-0.6966491,-0.0615024,-0.3597489,1.0450531,0.4743280,-0.1301557,-0.2383115,0.3553784,0.1315204,-0.7057765
-0.2467280,0.1234504,0.0444741,-0.0791624,0.6289811,-0.4265344,0.2476544,-0.7715461,1.3024036,0.0206861,-0.9347469,-1.0111779,0.0178458,-0.0291118,0.8949771,0.0478662,-0.1874609,-0.2451363,0.3471439,-0.0339819,-0.6256188
-0.2701575,0.1311627,-0.2173847,0.0667352,0.0302322,-0.3663604,0.1192734,-1.0241146,0.7997259,-0.1007292,-0.6996768,-1.3686570,-0.0973758,-0.2213117,0.6782627,-0.1063254,-0.5380518,-0.0607530,0.2221659,-0.1583023,-0.4361556
-0.2265538,-0.2373356,-0.3122388,-0.0478320,0.1759788,-0.1513722,0.0829832,-1.0742743,0.9029081,-0.3380325,-0.7918172,-1.4952899,-0.1631641,-0.6476379,0.5762995,-0.1452552,-0.3525466,-0.2460562,-0.0418782,-0.0171816,-0.4858727
-0.4512400,-0.1050228,-0.1233058,-0.2483420,0.0276621,-0.6697257,0.2495599,-1.2951400,0.3465510,-0.3240196,-0.7639117,-0.8954149,0.0608167,-0.6133217,-0.0209758,-0.3252615,-0.5526164,-0.5710606,-0.0600011,-0.1373567,-0.5456279
-0.4052998,-0.2361977,0.1251234,-0.3603553,-0.5328663,-0.8689395,0.3395839,-0.8960467,0.3676347,-0.3258939,-0.9452358,-1.0292810,-0.3488910,-0.3784324,-0.0832726,-0.3943007,-0.0865598,-0.2560668,0.1017074,-0.2002991,-0.6959547
-0.5432658,-0.2837038,0.4368785,-0.6420962,-0.0281543,-0.5196828,0.2890313,-1.3304527,0.2612832,-0.1918515,-0.4874626,-1.1160549,-0.2546057,-0.1879212,-0.0433820,0.0953099,0.2787483,-0.4641474,-0.1161692,-0.2571608,-0.4566145
-0.6819555,-0.1786224,0.2076482,-0.3101670,-0.0696461,-0.4845268,-0.0905469,-1.6267520,0.1160404,0.1816168,-0.6349179,-0.3677481,-0.5870148,-0.3952535,-0.2079228,0.1510106,-0.0292909,-0.4331358,-0.2121376,-0.1310332,-0.6734271
-0.6949908,-0.4022775,0.0028694,-0.5663337,-0.4625863,-0.7568184,0.0835858,-1.4697099,0.3432520,-0.3130016,-0.4378688,-0.4647501,-0.2000323,0.0464292,-0.0540425,-0.1473931,0.0023355,-0.5220023,-0.0650182,0.0459039,-0.5288576
-0.8866367,-0.7167675,0.3098642,-0.9522084,-0.8343805,-0.7031870,0.1521888,-1.3980515,-0.2817813,-0.1782415,-0.7585859,-0.6838830,-0.3771293,0.1757611,-0.4848215,-0.1756515,0.0762046,-0.6112621,-0.0481212,-0.0742398,-0.5783201
-0.9569055,-1.0522914,0.2181687,-1.1806315,-0.8631197,-0.6523598,-0.0146430,-1.9140465,-0.4877210,0.0494560,-0.8917373,-0.2286514,-0.2524975,-0.1472632,-0.8577358,-0.1087825,-0.1042136,-0.3750241,-0.3826639,-0.0230100,-0.5991657
-0.8667446,-1.4034023,-0.3053794,-1.1744663,-1.0992851,-0.6853964,-0.1141981,-2.0157754,-0.4275018,-0.2218006,-0.7786603,-0.0552810,-0.3717801,-0.2225746,-0.6317037,-0.6408060,-0.1733405,-0.2939247,-0.7192947,-0.1613282,-0.2396919
-0.6361546,-1.0493195,-0.2744914,-0.9117082,-0.6250891,-0.7348247,-0.0755551,-1.8892355,-0.2300591,-0.5845037,-0.6335001,-0.6896328,-0.4844648,-0.2831527,-0.1630960,-0.5373656,-0.0099434,-0.2874783,-0.1898419,-0.1715990,-0.3628848
-1.0137410,-0.9472383,-0.3904468,-0.9434152,-0.1064563,-0.5073993,-0.0975055,-1.6916496,-0.2966868,-0.3285653,-0.8252646,-0.5248963,-0.2881484,-0.4796093,-0.3293795,-0.3980480,0.2984771,-0.3468079,-0.1486288,0.0076804,-0.3002256
-1.0304289,-1.0478619,-0.4304561,-0.9086332,-0.3006741,-0.9080779,-0.1131711,-1.8702856,-0.2813164,-0.3051270,-0.8508566,-0.2943819,-0.2803099,-0.6065658,-0.5401855,-0.3370646,-0.0179970,-0.5318395,0.0672506,-0.3161155,-0.5047411
-0.9192768,-1.0512931,-0.4509237,-0.7254869,-0.5719319,-1.1107666,0.0381759,-1.5937207,0.1190355,-0.8310092,-0.7676699,-0.6141788,-0.4179642,-0.3342958,-0.1439934,-0.2243368,-0.0428723,-0.4153423,-0.1495443,-0.0578908,-0.4667845
-0.9373167,-0.9065920,0.1210567,-1.0220486,0.0848846,-0.7950492,0.3411759,-1.6759912,0.1958320,-0.6585106,-0.8476146,-0.7711925,-0.2335240,-0.2370774,-0.1340497,-0.1936143,0.1498698,-0.1492768,-0.3557239,-0.0953940,-0.2514060
-0.7350801,-0.6030654,0.4381763,-0.3495425,0.1519863,-0.6450438,0.4996827,-1.5586528,0.2531354,0.0801503,-0.8780559,-0.3797755,0.0019673,0.1620876,-0.2790125,-0.3822605,0.1586684,-0.1535047,-0.6043838,0.0849440,-0.1644645
-0.4902968,-0.1471531,-0.0166350,-0.2013649,-0.2204970,-0.7787328,0.4531744,-1.0544534,0.3982876,0.5015299,-0.6540078,-0.4246961,-0.0825544,0.1791203,-0.2792785,-0.4677411,0.0696016,-0.1694062,-0.1360608,0.0777941,-0.7612734
-0.4772893,-0.0838520,-0.5161709,-0.4652300,-0.6736957,-1.0971181,-0.0444164,-1.0399425,-0.3489473,0.3959129,-0.5323961,-0.9617099,-0.2966467,-0.3695960,-0.3763896,-0.6717998,-0.1309231,-0.5843803,-0.3605009,-0.1653007,-0.8780940
-0.7970863,-0.6691222,-0.4635689,-1.1682166,-0.1834998,-1.2068039,-0.3314956,-1.3946700,-0.5865859,-0.1527930,-0.7140047,-0.8222486,-0.3541685,-0.9897143,-0.9233166,-0.7796021,-0.4415786,-1.0535219,-0.6841668,-0.4190048,-1.3136883
-1.1002563,-0.9835875,-0.5910491,-1.0572792,-0.6795267,-0.6444457,-0.5223665,-2.1561899,-0.8552899,-0.3569015,-0.8820453,-0.4933488,-0.7406114,-1.3656445,-0.9736120,-1.1578014,-1.0299132,-1.1550319,-0.8714698,-0.6381212,-1.7707797
-1.0377351,-0.2091660,-0.6559667,-0.8828245,-0.5466926,-0.2766359,-0.6084658,-1.9462097,-1.2341486,-0.4948938,-0.9010642,-1.3650200,-0.7597102,-1.4460632,-0.7203379,-1.5223274,-1.2980704,-1.0714232,-0.9391662,-1.0820230,-1.4412204
-1.0413483,-0.6913803,-0.6701618,-1.2945101,-0.6541328,-0.7269187,-0.6729862,-1.8382051,-1.0931941,-0.2169735,-0.8643179,-1.3611238,-0.7732750,-0.9621935,-0.8413664,-1.1348046,-1.1263326,-1.2493900,-1.1061351,-0.9626386,-1.5417215
-0.9219876,-0.7556166,-0.7056758,-1.1481010,-0.9930332,-0.9914756,-0.1660774,-1.9090911,-0.8555691,-0.5515298,-1.1410003,-1.2792968,-0.8136953,-0.5220488,-0.5983943,-1.2127999,-1.3367665,-0.8077393,-0.8902628,-0.8863901,-1.3350903
-0.9546971,-0.7944802,-0.5367520,-0.7803572,-0.8270421,-0.9166476,-0.1005066,-1.6720692,-0.3743887,-0.3964520,-0.8457459,-1.3203039,-0.5828413,-0.5074131,-0.1017980,-0.9765000,-1.1606678,-0.3856985,-0.3987520,-0.6673663,-0.7744447
-0.8359200,-0.8723007,-0.4158919,-0.6817343,-0.5467325,-0.9073079,-0.1253698,-1.3881781,-0.6383978,-0.4967955,-0.7261682,-1.4240487,-0.3099876,-0.2567489,-0.3831984,-0.7099612,-0.5927826,-0.2533859,-0.4748722,-0.4078026,-0.4717382
-0.7151043,-1.1407288,-0.4229462,-0.7898720,-0.7120128,-1.0095152,0.0858637,-1.5188929,-0.7124159,-0.5401048,-0.6555569,-1.0599195,-0.0720025,-0.2700770,-0.3897031,-0.8894596,-0.5014600,0.0097837,-0.7109441,-0.3162629,-0.6698304
-0.6123445,-1.0178776,-0.3101749,-0.9224903,-0.6663852,-0.8401071,-0.0790278,-1.5797404,-1.0986152,-0.4502092,-0.9793073,-0.8786041,-0.3927865,-0.1545083,-0.6070933,-1.0414357,-0.6551414,-0.3549895,-0.9162481,-0.5721697,-0.1803057
-0.4942332,-0.7326199,-0.6549050,-1.0547568,-0.6640229,-0.4729702,-0.1051406,-1.2709247,-0.9859428,-0.9568781,-0.9908477,-0.8272313,-0.4743638,-0.3983890,-0.6139178,-1.0707978,-0.6920734,-0.5070906,-1.2654234,-0.4970297,-0.5211279
-0.5716546,-0.7262425,-0.1660990,-1.1000251,-1.1359932,-0.4828170,-0.2281142,-1.6969347,-0.9823449,-1.1703626,-1.1273379,-1.0252606,-0.4096914,-0.3882933,-0.5533659,-1.1250894,-0.6929953,-0.5004778,-1.1032580,-0.4427887,-0.4865351
-0.4525060,-0.4088269,-0.0688561,-0.6936616,-0.5859992,-0.8743026,-0.0472837,-1.8005431,-0.3040193,-1.1299889,-1.3050060,-0.9097956,-0.2458161,-0.0379373,-0.4316028,-1.0174493,-0.6031509,-0.1260648,-0.5826685,-0.3113793,-0.4536908
-0.2447617,-0.0550766,0.0027717,-0.2474084,-0.0460620,-0.3774996,-0.0206951,-1.3891757,-0.3440213,-0.7655717,-1.1422451,-1.0719705,-0.2126343,-0.2880392,-0.1828612,-1.0539439,-0.2379690,-0.1420036,-0.3053625,-0.2943414,-0.3434060
-0.3659287,0.4536680,-0.0122217,-0.2256541,-0.1361321,-0.0754481,-0.0805527,-1.3323848,-0.2323438,-0.1967370,-0.9969241,-0.9954317,-0.5527589,-0.2736164,-0.3773639,-0.7506441,-0.3665716,-0.0562886,-0.3928853,-0.2695488,-0.4085698
-0.4918706,0.0708398,-0.2357983,-0.5365431,-0.5945610,-0.3967294,-0.0423632,-1.3195368,-0.1272653,-0.2345759,-0.8014497,-0.6462728,-0.5690915,-0.0379876,-0.5380934,-0.9189788,-0.5625288,-0.1358218,-1.0796751,-0.4644880,-0.4113638
-0.3013669,0.2853166,-0.4173224,-0.7233751,-0.9447936,-0.3940890,-0.1621172,-0.9151244,-0.2811723,-0.6454449,-0.9387205,-1.2014987,-0.6196269,0.0199138,-0.4762966,-0.9940618,-0.6505795,-0.3415524,-0.7176806,-0.4016112,-0.2483408
-0.3570636,-0.1914955,-0.2196264,-0.5871251,-0.6013058,-0.5363187,0.0032329,-1.0380749,-0.3227604,-1.1012849,-1.0364249,-1.2088218,-0.5664187,-0.2882669,0.2042763,-1.1825428,-0.7592053,-0.3579386,-0.5478528,-0.4679848,-0.1433041
-0.4320016,-0.3945293,0.0421929,-0.1534165,0.1709721,-0.6848817,-0.0620094,-1.5290018,-0.2771902,-0.6867543,-1.0627748,-1.0818464,-0.5056464,-0.3784044,0.0885057,-1.1013031,-0.8352411,-0.3948763,-0.6343356,-0.6612506,-0.4823735
-0.2216557,0.0480267,0.0362547,0.0057871,-0.0583876,-0.4424925,-0.1103118,-1.3899721,-0.2251604,-1.0091025,-1.1428714,-1.4273139,-0.6742260,-0.4002386,-0.1351271,-1.1118562,-0.8557019,-0.3273811,-0.5208208,-0.6865267,-0.6129193
-0.2869280,0.1545877,0.0998239,0.0174542,-0.2808572,-0.5581932,-0.1466413,-1.2465916,-0.2983100,-0.4587826,-0.9322132,-1.5978917,-0.7994309,-0.3455962,-0.5382084,-0.7453918,-0.6064379,-0.3057627,-0.2478299,-0.6461174,-0.5272778
-0.3018894,-0.0933022,-0.1772137,-0.2758631,-0.4061784,-0.9562644,-0.2962516,-1.1415046,-0.2026913,-0.4215016,-1.0875589,-1.0245551,-0.8957521,-0.3313382,-0.4224565,-0.8846790,-0.4265549,-0.1925231,-0.3212983,-0.4410509,-0.4556535
-0.2750418,-0.0266042,-0.0351238,-0.5531106,-0.9035093,-1.0623438,-0.2265030,-1.2984697,-0.1300259,-0.2896957,-1.2005039,-1.0728656,-0.7753559,-0.3889600,-0.3050085,-1.0647978,0.0824014,-0.1048574,-0.3272919,-0.4923732,-0.5069304
-0.2952712,0.0600242,-0.1977433,-0.4751136,-0.5357448,-0.2588469,-0.0525754,-1.0152614,-0.1257165,-0.2323907,-0.7243036,-1.4061545,-0.6963745,-0.2392846,-0.2944863,-0.8651539,-0.2460312,-0.0822467,-0.4755758,-0.6152115,-0.7046862
-0.4146266,-0.1910736,0.0603279,-0.6012067,-0.8251149,-0.2344749,-0.0882590,-1.2092772,0.0016458,-0.0888747,-0.7736580,-1.4108869,-0.7155569,-0.3244785,-0.2237348,-0.8047064,-0.6437002,-0.1940022,-0.4977579,-0.4103458,-0.4639982
-0.4437653,-0.4120665,-0.2440594,-0.4603973,-0.2565656,-0.5855373,0.0531411,-1.4723083,-0.2637038,0.2070100,-0.6253771,-1.1927868,-0.7781590,-0.1520662,0.0628853,-0.9526536,-0.5350482,-0.0419942,0.0933366,-0.4881054,-0.3387001
-0.4451386,-0.2024585,-0.3589123,-0.2068377,0.1847614,-1.0020989,-0.1070762,-1.3588381,-0.4282498,-0.0691143,-0.7595338,-1.3724995,-1.2260308,-0.4638391,-0.3012791,-0.9160602,-0.7065063,-0.4595824,-0.1078529,-0.6252263,-0.5069700
-0.5560873,-0.2856682,-0.5816633,-0.7666246,-0.0308025,-0.9817046,-0.3090576,-1.5781310,-0.3011990,-0.5521762,-0.9208507,-1.5044032,-1.0042156,-0.7151070,-0.2956267,-0.9404984,-0.3996862,-0.5021356,-0.5529760,-1.0649025,-1.1542851
-0.6058710,-0.3565629,-0.1101778,-0.9122401,-0.5701805,-0.7202056,-0.1610480,-1.5516728,-0.6388158,-0.2401478,-1.1885839,-0.9900247,-0.6779282,-0.1495615,-0.6701769,-1.1163300,-0.7483846,-0.1922217,-0.4613549,-0.9249142,-0.9017272
-0.8198988,-0.3755185,-0.2122972,-0.6729516,-0.8309703,-0.7740558,-0.1160911,-1.5128465,-0.6512802,-0.2598108,-1.1084790,-0.8354288,-0.5659194,0.1377360,-0.6299765,-1.0796740,-0.9260877,-0.6023751,-0.3807729,-0.8671049,-0.9043896
-0.7266123,-0.5881398,-0.3089978,-0.8136870,-0.1720331,-0.7177121,-0.2113806,-1.4483182,-0.5939279,-0.6188055,-0.9301364,-0.9974715,-0.4738451,0.0102265,-0.8075164,-0.9793167,-0.4042943,-0.2159275,-0.0534493,-0.8116097,-0.6966163
-0.6825922,-0.4527828,-0.4164857,-0.6251582,0.1584457,-0.4369654,-0.1788701,-1.2860008,-0.5679382,-0.3155361,-0.9190923,-0.8738660,-0.2467108,-0.0045240,-0.7094508,-0.8095006,-0.6393076,-0.2785118,-0.5055647,-0.9204500,-0.6297099
-0.2887867,-0.5912004,-0.3742653,-0.9001579,0.2035837,-0.8938685,-0.0472783,-1.1779168,-0.1746555,-0.2922024,-0.9905823,-0.6728465,-0.5212288,-0.1327360,-0.5650624,-0.7197859,-0.8684926,-0.2686092,-0.5073670,-0.9455231,-0.7542065
-0.1137378,-0.1250154,-0.5280330,-0.4725493,-0.0656180,-0.5283455,-0.0875758,-0.9965993,-0.3650214,-1.0907633,-1.1941823,-1.3944693,-0.7468221,-0.5335193,-0.3566326,-0.8534806,-1.0487893,-0.2161177,-0.5366983,-0.7961110,-0.9225860
0.0219918,0.0344785,-0.4046462,0.1375837,-0.2099515,-0.7331516,-0.1027296,-1.2205845,-0.4026421,-0.9958656,-1.3979906,-1.4430578,-0.8344349,-0.3061015,-0.0267708,-0.8248009,-1.0851942,-0.0854533,-0.1243362,-0.6363118,-0.6701124
-0.0550544,0.1741356,0.0090812,0.1426312,-0.4759021,-0.5532835,0.2917757,-1.2558848,0.0326593,-0.7646086,-1.6064638,-1.0412250,-0.6260643,-0.1175416,0.2572078,-0.7981348,-0.8039054,0.4327568,0.0410358,-0.3495379,-0.3112057
-0.1196656,0.2511112,0.1334300,0.0468605,0.1693700,-0.2387743,0.2154568,-0.9475196,0.1566663,-1.3087696,-1.5350041,-1.2868544,-0.5674637,0.1346855,0.5929172,-0.4266091,-0.7761121,0.3470468,0.3908015,-0.2488857,-0.2804920
0.0638459,0.2916879,0.0088168,-0.0956128,0.4054583,-0.6157273,0.0180777,-0.9239262,0.1620648,-0.8515290,-1.2742366,-1.3218670,-0.3735825,0.3861562,0.4676776,-0.3993340,-0.6517797,-0.1295378,-0.0268811,-0.3830915,-0.5678859
-0.0517029,-0.0181333,0.0907577,0.0318020,0.1717571,-0.8555771,0.0496381,-1.1974845,0.1522338,-0.6655737,-1.3371496,-0.9514756,-0.6703396,0.0672355,-0.1752497,-0.7500082,-0.7455463,-0.1995835,-0.3331991,-0.5127786,-0.6883347
-0.2778352,-0.1141161,-0.0044480,-0.1926284,-0.0343396,-0.5507469,-0.0339192,-1.0405705,0.1323583,-0.7969955,-1.3922982,-0.9284914,-0.6401780,-0.1265675,-0.0255173,-0.9277617,-0.6884693,-0.2239147,-0.0043860,-0.5955734,-0.8768672
-0.3436320,0.3270786,-0.0066874,-0.2231953,-0.2589839,-0.6408967,-0.2463431,-1.3098012,-0.1826922,-0.9184750,-1.2644943,-1.5773263,-0.7767047,-0.0295965,-0.0885461,-0.9949614,-1.0400460,-0.7212684,-0.0135314,-1.0720942,-1.2487090
-0.2584047,0.3131711,-0.0934797,-0.2870763,-0.9766992,-0.6870645,-0.4025788,-1.4077294,-0.5023432,-1.1863717,-1.3061115,-1.3788995,-0.8059341,-0.2304692,-0.0922637,-1.2889688,-0.9725606,-0.8928100,-0.4347993,-1.1495759,-1.4414459
-0.4384842,-0.0777566,-0.1524407,-0.1390520,-0.7786232,-1.3095131,-0.5044695,-1.4017228,-0.7083513,-1.2602268,-1.4303511,-1.4980290,-1.0367998,-0.6006617,0.0655313,-1.4448646,-0.9115751,-0.6980321,-0.5023828,-1.1042075,-1.1739601
-0.4181793,0.1366474,-0.3798958,0.0631327,0.0279560,-1.3481077,-0.4398140,-1.3839909,-0.5325605,-0.6820723,-1.4141693,-1.6398209,-0.9038361,-0.3665631,0.2431680,-1.1215879,-0.5346140,-0.6101177,-0.0568670,-0.9820680,-0.7424018
-0.2110607,0.4701768,-0.4906366,-0.3697273,0.2195691,-0.6674466,-0.3243272,-1.4282076,-0.3352924,-0.8667706,-1.3337899,-1.2076869,-0.6611014,-0.1051813,0.1754049,-1.0012430,-0.4055983,-0.3575807,-0.0572968,-1.0595610,-0.6624628
-0.2797031,0.0684934,-0.2886248,-0.6183685,-0.5320427,-0.6263914,-0.1444160,-1.3496568,-0.7196341,-0.6309040,-1.3313501,-0.8120952,-0.5877540,-0.2289821,0.0339129,-1.2025869,-0.4735008,-0.3209411,0.1148039,-1.1075817,-0.6323574
-0.4086171,-0.0219544,-0.1477191,0.3164887,-0.6551040,-0.7782794,-0.1795870,-1.2522975,-0.1919527,-0.6757188,-1.1870871,-1.2278057,-1.0200092,-0.0960564,-0.1523420,-0.8945863,-0.4725614,-0.3461649,-0.0373242,-1.1035993,-0.6700973
-0.1402854,-0.1328553,-0.4663456,0.3062132,0.2893106,-0.3968441,-0.1066722,-1.1966519,-0.3097934,-0.7420877,-1.1640743,-1.5681068,-0.7228700,-0.0856579,-0.0634188,-0.7488047,-0.3450533,-0.2111094,-0.2370147,-0.7016833,-0.5272666
-0.3360854,-0.3087801,-0.3154716,-0.3150757,0.2991127,-0.8426274,-0.2976815,-1.2776837,-0.2323088,-0.5351023,-1.7166308,-1.0377023,-0.8023985,-0.1935196,-0.4212964,-0.9781425,-0.8222902,-0.4798000,-0.3725678,-0.8002049,-0.8733813
-0.6627936,-0.4267278,-0.7140593,-0.3300660,-0.3585907,-1.1016814,-0.5137326,-1.3752879,-0.4529790,-0.9191144,-1.8659441,-1.3591959,-0.9344615,-0.6852053,-0.2563846,-1.4194069,-1.5450802,-0.8684002,-0.4504272,-1.3154558,-0.9206840
-0.3360762,-0.3413417,-0.8527768,0.0437739,-0.4773063,-1.0317349,-0.3825902,-1.1068947,-0.5625562,-1.4006811,-1.5969716,-1.7514493,-1.1708421,-1.1354283,-0.3281157,-1.1992618,-0.9674188,-0.7033100,-0.6583830,-1.2635516,-0.8904891
-0.3942654,-0.2060745,-0.8268537,0.1382225,-0.1305944,-0.8019956,-0.2436051,-1.1507719,-0.1422872,-1.1361223,-1.3402313,-1.2570384,-1.0399011,-0.6454233,0.0557460,-0.5639299,-0.5754558,-0.2188693,-0.0079044,-0.9845965,-0.6954157
-0.5163767,-0.4757466,-0.7063948,-0.0676382,-0.3759928,-1.0236187,-0.1101888,-1.0421257,-0.1600270,-0.7659168,-1.3700539,-0.8587325,-0.9702631,-0.3614191,0.2585862,-0.8439540,-0.7786939,-0.1468801,0.3293793,-0.6381211,-0.5876645
-0.2130659,-0.0603844,-0.5826954,0.2135692,-0.2929546,-0.7742654,-0.3011118,-1.1117053,-0.1901787,-0.8541975,-1.0349123,-1.5051086,-0.9482778,-0.3860964,0.1318390,-1.0052226,-0.6568959,-0.1223718,0.0054361,-0.4936716,-0.8432295
-0.1808954,-0.2292488,-0.1350797,-0.0418363,-0.3888791,-0.3244862,-0.3848442,-1.0326893,-0.1106507,-0.9382468,-1.1861509,-1.4699159,-0.9587585,-0.5692261,0.0430312,-0.7738296,-0.2528478,-0.0877595,-0.1777799,-0.6045028,-0.8210576
-0.3798758,0.0367911,-0.0507485,-0.0744225,-0.9305768,-0.9802487,-0.2916531,-1.6787875,-0.5969611,-1.2412968,-1.4071579,-1.2234946,-0.7723232,-0.3677587,-0.0261664,-0.9690387,-0.8770430,-0.3267322,-0.2421986,-0.6676996,-0.8093144
-0.3522191,0.1645487,-0.4844131,0.0002216,-0.6931800,-1.0643822,-0.4914965,-1.4213717,-0.5040099,-1.2581563,-1.6299386,-1.7767069,-1.0186133,-0.1590011,-0.1353530,-1.2169014,-0.7821730,-0.4462826,-0.1687304,-1.0246253,-1.2616464
-0.3017768,-0.0716247,-0.9796239,-0.4970182,-0.7270890,-0.5628595,-0.6201687,-0.9163254,-0.6101258,-1.2755964,-1.1979108,-1.9280235,-1.0099362,-0.8492900,-0.2077797,-1.3529878,-1.0329185,-0.5394450,-0.4454411,-1.1853074,-1.3597395
-0.4878933,-0.3365959,-0.8077055,-0.5440021,-0.8352562,-0.5284638,-0.6967831,-1.4432904,-0.7157519,-0.7735575,-1.3142869,-1.6134298,-1.1172739,-0.7604436,-0.0575270,-1.0996094,-0.9639836,-0.3876111,-0.2960058,-0.8900678,-0.7907612
-0.3848236,-0.4194793,-0.5264183,-0.2528515,-1.1688884,-0.7046381,-0.6830608,-1.5226202,-0.5231166,-0.5520908,-1.1203899,-1.1985804,-1.0458483,-0.6234448,0.2265005,-1.0790138,-0.9269376,-0.5068955,-0.0647355,-0.7837526,-0.9687164
-0.4844959,-0.0178281,-0.6374391,-0.5518085,-0.9493999,-0.6681018,-0.5374933,-1.6637461,-1.2091120,-1.1152290,-1.1010196,-1.4807544,-0.9306335,-0.6759936,0.4341311,-0.9853720,-0.8046246,-0.5049455,-0.1800730,-1.1076154,-1.0739516
-0.4485525,-0.3841470,-0.3282067,-0.4674034,-0.5860724,-0.5534502,-0.5298993,-1.7318472,-1.1181141,-0.9433184,-1.1685994,-1.4961630,-0.8282571,-0.5551004,0.3571436,-0.6073024,-0.6100187,-0.4829951,-0.1196510,-0.7859620,-0.9297491
-0.3613121,-0.6499412,-0.0496218,-0.2840907,-0.1193121,-0.9364960,-0.3639707,-1.2042136,-0.4425226,-0.7210682,-1.2099109,-1.0680381,-0.6493312,-0.5395049,0.0205025,-0.5936805,-0.6819817,-0.4588015,-0.3590776,-0.8593215,-0.8128851
-0.4238877,-0.4144476,-0.0839851,-0.5813269,-0.6460691,-0.4015100,-0.4963529,-1.2075311,-0.4028856,-1.0807569,-1.2504302,-1.3134924,-0.3623447,-0.3328016,-0.4888580,-0.7008231,-0.7002314,-0.4152624,-0.2911187,-0.7755763,-0.8151088
-0.6554592,-0.3226539,-0.4229331,-0.7027058,-0.7877213,-0.6512701,-0.4089763,-1.5102993,-0.4772974,-0.5458570,-1.4867212,-0.9338253,-0.6313816,-0.6206113,-0.9733425,-0.8983830,-0.7380046,-0.6420389,-0.2976088,-0.9518701,-1.2945110
-0.7210475,-0.5167673,-0.8139552,-0.1510616,-1.1556100,-1.0720234,-0.7572857,-1.5919055,-0.6388851,-0.5436188,-1.6161677,-0.7968563,-1.1400731,-1.0522825,-0.5298837,-1.0568542,-0.7839415,-0.9586185,-0.5545337,-0.8023645,-1.2131201
-0.5568587,-0.5886350,-1.0315804,0.0716427,-1.2018989,-1.1148918,-0.9708622,-1.0761675,-0.5128294,-1.0122465,-1.3401037,-1.1980699,-1.3719158,-1.5266124,0.0705614,-1.0292579,-1.0208297,-1.0344666,-0.4146718,-0.9378495,-1.3581336
-0.5526215,-0.2462367,-1.0716525,0.0795498,-1.6284571,-1.0471958,-1.0604341,-1.1995726,-0.5632702,-0.6289795,-1.2876974,-1.6638050,-1.1526885,-1.2476624,-0.3014460,-0.8620793,-0.9609046,-0.9196230,-0.1081405,-0.9919757,-0.9417451
-0.7907649,-0.4710814,-1.2862871,-0.1971332,-0.4621907,-1.1303891,-1.1001172,-1.3038262,-0.8264359,-0.9896740,-1.5058126,-1.2697667,-1.1936852,-1.3625988,-0.6470625,-1.0268620,-0.8321964,-0.9068869,-0.2270466,-0.6377489,-0.8266178
-1.1761830,-0.5435972,-1.1475079,-0.5849735,-0.6349622,-0.8275941,-0.7723073,-1.4428000,-0.7319086,-1.1235695,-1.3897595,-0.7910022,-1.0161809,-1.2767401,-0.3257653,-1.0908277,-0.8634779,-0.8235162,-0.3994724,-0.7174215,-1.0578665
-0.7369673,-0.5875006,-1.3737411,-0.3151885,-0.8678530,-0.7783292,-0.7205617,-1.1910084,-0.9452596,-0.9387873,-1.1057333,-1.3104764,-0.7762463,-1.0234393,-0.4334175,-0.7103711,-0.5920509,-0.6124905,-0.2195147,-0.4461077,-0.6725512
-0.5862929,-0.4043917,-0.9718043,-0.2765620,-0.8369570,-0.8385686,-0.8980410,-1.1042011,-0.6968160,-0.9158861,-0.9330335,-0.9834909,-0.6171103,-1.1087142,-0.2965830,-0.5039940,-0.3677407,-0.3404541,0.0506671,-0.0881584,-0.9294565
-0.3635694,-0.7382922,-0.6960924,0.1310323,-1.0468658,-1.0280101,-0.8511541,-1.0966866,-0.5651091,-1.1078359,-1.1348050,-0.9656354,-0.5059661,-0.7779320,-0.3027322,-0.4216124,-0.4632535,-0.5161359,0.1247535,-0.3275533,-1.2387892
-0.4122397,-0.6189505,-0.8204716,0.4345751,-0.5721573,-0.6512067,-0.3379677,-1.1315445,-0.5817686,-0.9201652,-1.2564299,-1.2216251,-0.6501567,-0.6238602,-0.0469971,-0.3929442,-0.0118858,-0.3836426,0.3026836,-0.5760568,-0.7365168
-0.0941123,-0.1346804,-0.7113868,0.5547087,-0.4890880,-0.6148673,-0.2000605,-1.0754747,-0.1903440,-0.9530556,-0.9705654,-1.2494508,-0.4281422,-0.2101437,0.1728634,-0.6396815,-0.1683545,-0.2629280,0.4204515,-0.4676288,-1.0149103
-0.1577812,-0.7107228,-1.0731168,0.9286339,-0.3405523,-0.7060170,-0.4782562,-0.9009905,-0.2546215,-0.5695377,-1.3568326,-0.9380744,-0.6023072,-0.5122837,0.3204500,-0.5905982,-0.4579952,-0.1216594,0.2609634,-0.3914222,-1.1669000
-0.1895289,-0.4664984,-1.0811331,1.0378430,-0.8045511,-0.4242222,-0.6786907,-0.6361960,-0.3267656,-0.8289551,-1.2407384,-0.8316936,-0.6009316,-0.5657098,0.4092204,-0.3751934,-0.5224415,-0.2812262,-0.1509897,-0.5519602,-0.8879969
-0.3169137,-0.8077407,-1.0281311,0.8245986,-0.3014270,-0.7041520,-0.4900704,-0.7685583,0.0279394,-0.9276829,-0.7726208,-1.1818887,-0.6088713,-0.3307385,-0.0674976,-0.4657516,-0.4989451,-0.5485913,-0.2967023,-0.7190719,-1.1086241
-0.4446595,-0.9789351,-0.8774081,0.1135939,-0.7323189,-0.7662763,-0.4641823,-0.9008037,-0.2187615,-0.5326517,-0.7488402,-0.8480520,-0.4960700,-0.5042312,-0.3728248,-0.6146187,-0.4354546,-0.6588446,-0.3908142,-0.7733172,-1.0097387
-0.4608847,-0.6407325,-0.2794781,-0.2715513,-0.7753404,-1.3024896,-0.5031630,-1.1945143,-0.5412033,-1.2197011,-1.0949347,-1.0371115,-0.7698434,-0.9684895,-0.3362074,-0.8318554,-0.5842502,-0.8666832,-0.6268871,-0.8199528,-1.1752676
-0.3304729,-0.2466709,-0.6526893,-0.1170853,-0.8983017,-0.9683626,-0.5523471,-1.2202843,-0.8924335,-1.1244222,-1.1745592,-1.6701686,-0.8777825,-0.9300053,-0.5556448,-0.9732326,-0.6946704,-1.0208632,-0.9922660,-1.0268999,-1.3835648
-0.3791755,-0.2755202,-0.4171801,0.1039895,-0.7586325,-0.5291489,-0.5364649,-1.5175734,-0.7921236,-0.6862593,-1.5125850,-1.6515011,-0.7579902,-0.7187001,-0.6312766,-0.8584149,-0.8704078,-0.9512799,-1.0519893,-1.3043120,-1.4677972
-0.7513666,-0.1987591,-0.5764861,-0.7481269,-0.8797895,-0.9427152,-0.3715043,-1.6383176,-0.6998416,-1.1928903,-1.5417273,-1.4354787,-0.8194453,-0.8064867,-0.4474323,-0.7799282,-0.9406378,-0.9198228,-0.7586768,-1.2063279,-1.0569481
-0.7791803,-0.0152304,-0.7737071,-0.1922949,-0.9897428,-0.5979538,-0.6783784,-1.1741015,-0.7048092,-1.3265361,-1.4033262,-1.6452485,-0.9749836,-0.8707340,-0.3513428,-0.8518506,-0.8383099,-0.9786279,-0.7073657,-0.9002246,-1.0953116
-0.5915955,-0.4645180,-1.0592932,-0.3322271,-1.0438161,-0.4533556,-1.1409771,-1.4088246,-0.7479652,-1.3524716,-1.0432334,-1.5967302,-1.1275868,-1.1676655,-1.0539716,-1.0565245,-1.0094678,-1.4227805,-1.0963812,-1.0314528,-1.5915319
-0.6293687,-0.2573346,-1.1742507,-0.7263253,-1.3543940,-1.1958526,-1.0178623,-2.0723023,-1.2273818,-1.4300591,-1.6666826,-1.5511254,-1.3119473,-0.9805110,-1.2177753,-1.3696835,-1.4244835,-1.7026604,-1.4852822,-1.8996388,-1.9646386
-0.6679530,-0.3201382,-1.2449386,-0.6163669,-1.3575909,-1.4766479,-0.9299309,-1.9805514,-1.8357403,-1.7360215,-1.5231098,-1.8539983,-1.3056780,-1.2641375,-1.2054905,-1.3637116,-1.6082493,-1.3925351,-1.3673843,-1.9228195,-1.9084646
-0.6080597,-0.0712949,-1.2709724,-0.5030031,-1.9316419,-1.2753862,-0.6584379,-1.5535448,-1.2260109,-1.6362751,-1.5645077,-1.9196721,-1.4615265,-1.6026855,-0.5372320,-1.2825737,-2.1039317,-1.3461686,-1.2830404,-1.9661322,-1.8829259
-0.3836813,0.1355519,-0.9847080,-0.6368727,-1.6324804,-1.4772799,-0.6094559,-1.6861377,-0.8721468,-1.8034767,-1.6813393,-1.6122539,-1.3610736,-1.3510475,-0.7587033,-1.2661505,-1.9561329,-1.1735243,-1.0753242,-1.5563649,-1.3769672
-0.2592261,0.2096313,-0.3367147,-0.2252310,-1.0060561,-0.7161316,-0.2194405,-1.6652052,-0.9468980,-1.6515287,-1.7501251,-1.2156156,-0.5147850,-0.4479202,-0.5488366,-1.1534098,-1.4237671,-0.4349686,-0.8292571,-1.1572671,-1.0168068
-0.0192958,0.0964776,-0.6216131,-0.2173862,-1.0185916,-1.0255228,-0.5795599,-1.2175858,-0.4161464,-1.1468672,-1.5402086,-1.4881814,-0.7490555,-0.3687762,-0.2911529,-0.8014311,-1.2637354,-0.4828196,-0.9639848,-1.0929345,-0.7721165
-0.4250595,-0.1207136,-0.5119849,-0.2670936,-1.0674747,-1.2388017,-0.6533700,-1.1320539,-0.4326271,-0.9215056,-1.4029646,-0.7575163,-1.0512471,-0.5317410,-0.7566857,-1.0658649,-1.3397182,-0.6150352,-0.9615770,-1.2352355,-0.8073945
-0.5237857,0.2672428,-0.2742472,0.0718922,-1.5747257,-0.9147729,-0.6194640,-1.4026966,-0.8680378,-1.2753240,-1.5177681,-0.8740098,-0.7648937,-0.4639106,-0.5403511,-1.0819356,-1.3622266,-0.7009858,-1.2346801,-1.2542906,-0.7148312
-0.4541909,0.3234179,-0.6085410,-0.1779088,-1.3909209,-1.1004970,-0.5783677,-1.3355941,-0.8964334,-1.6733398,-1.7300304,-1.1880656,-0.9886830,-0.5120161,-0.7704452,-1.2004544,-1.3452694,-0.8666977,-0.9739320,-1.2239474,-1.0530802
-0.2092751,0.2103037,-0.6186668,-0.0597273,-0.6712011,-1.3830471,-0.6506386,-1.4470172,-0.8946926,-1.5175724,-1.4986774,-1.4051880,-1.1567458,-0.6191995,-0.5409936,-1.2978808,-1.4109347,-1.1278406,-1.1498858,-1.2987939,-0.7059194
-0.3698949,-0.5213825,-0.6129792,-0.2306800,-0.8676770,-1.7819816,-0.7353327,-1.5380914,-0.5455487,-1.1929919,-1.6467764,-1.0674865,-1.1276830,-0.5445588,-0.6851012,-1.2002488,-1.4581093,-0.9585752,-1.1757008,-1.6463506,-0.9615403
-0.2490970,-0.5974894,-0.2234411,-0.0744333,-1.4549291,-1.4535049,-0.3291215,-1.4625756,-0.9483199,-1.3215886,-1.6297034,-1.1023824,-0.7813302,-0.4011968,-0.3814108,-1.1202928,-1.2858094,-0.8182906,-0.8737756,-1.5938250,-0.9771631
-0.2167376,-0.1266571,-0.0676353,-0.2265075,-1.0325329,-0.8713049,-0.3306533,-1.2789428,-0.8651823,-1.2590232,-1.5037836,-1.1774882,-0.5199308,-0.2395041,-0.3304045,-0.9388233,-0.8274745,-1.0622209,-0.8534988,-1.2835680,-0.8161945
-0.2382843,-0.4043665,-0.2322748,-0.4926352,-1.2406175,-1.5224628,-0.4766926,-1.2861141,-1.1571527,-1.3649457,-1.4995595,-0.8974348,-0.5319325,-0.4449803,-0.8223325,-1.1747224,-1.2414627,-0.9663642,-1.0958666,-1.5065427,-1.3100008
-0.5948458,0.0391537,-0.1713330,-0.1142480,-1.4853977,-1.0225289,-0.5106536,-0.9642574,-1.1453879,-1.1375664,-1.6560867,-1.4898348,-0.9303020,-0.6853023,-1.0986644,-1.3353213,-1.2056732,-1.1952034,-1.1291615,-1.8827531,-1.5268185
-0.5102791,0.4028984,0.1319057,-0.1770826,-1.1672256,-0.1098258,-0.3050026,-1.0683104,-0.8349991,-1.2586586,-1.2990316,-1.7903335,-0.7886390,-0.6138059,-0.6215189,-0.8612077,-1.0307422,-0.9051707,-0.7927741,-1.7008771,-0.9885863
-0.2854212,0.4526784,0.3207015,-0.0055478,-1.1225165,-0.6140409,-0.4462095,-1.1387635,-1.1566802,-1.3317692,-1.3307875,-1.1688944,-0.7379627,-0.3996794,-0.1934418,-0.9325646,-1.0937412,-0.7767109,-0.6858879,-1.2568986,-0.9418119
-0.5651044,0.1470250,0.1931259,-0.2153816,-1.2183895,-0.8878033,-0.4285198,-1.2645135,-1.1397654,-1.4414561,-1.5894550,-0.9206091,-1.0148458,-0.3205978,-0.0094281,-0.7165074,-1.1386538,-0.5912269,-0.5666806,-1.1651175,-0.8619087
-0.3342118,0.0515275,0.1535370,-0.2857988,-0.2658310,-0.4232844,-0.1208022,-1.0402484,-0.6009374,-1.1912428,-1.3457859,-1.0793607,-0.8805745,-0.0991458,0.0142934,-0.3873080,-0.6925124,-0.3854147,-0.2429153,-1.0118270,-0.1731597
-0.3925286,0.2575527,0.6961861,-0.1894516,0.0690615,-0.0601937,0.1411058,-1.0688671,-0.5947945,-1.1719604,-1.2061461,-0.8725678,-0.6470366,0.1859196,0.0876761,-0.3718418,-0.3213503,-0.1649373,-0.0357095,-0.2461450,0.0767080
-0.4877348,-0.0273766,0.6594012,-0.3244869,-0.6125832,-0.2722875,0.0386731,-1.2420058,-0.9087304,-0.8541992,-1.4881586,-0.4172797,-0.2321935,0.7445851,-0.1691392,-0.3345109,-0.5478583,-0.2280038,-0.0006345,0.0446014,0.0499438
-0.2679599,-0.1047144,0.8124268,-0.1733617,-0.4785428,-0.2090920,-0.0219323,-1.1893566,-0.8997482,-0.8187410,-1.0300438,-0.4248313,-0.6089396,0.3698770,-0.1769758,-0.3284188,-0.2835570,-0.6362851,0.0231099,-0.5938087,-0.2375650
-0.1568569,0.1021794,0.2084683,-0.2107695,-0.4654117,-0.3719816,0.0207153,-1.0941976,-0.4052275,-0.7719281,-1.1531876,-0.8816083,-0.8120887,0.2931217,-0.1218073,-0.5290128,-0.4694318,-0.3858821,-0.4161988,-0.5709590,-0.6424300
-0.4761873,-0.3734766,-0.1941713,-1.0780360,-0.8015194,-1.1490539,-0.4412079,-0.9369810,-0.6482286,-0.6390042,-1.5027399,-0.3843654,-1.2746019,0.1379857,-0.5707722,-0.8884557,-0.9213727,-0.8724065,-0.3873060,-0.7053823,-1.0804816
-0.5867866,-0.3793708,-0.7523980,-0.4976638,-0.4861115,-1.7013162,-0.8976347,-0.7832252,-0.9092078,-1.2386050,-1.4467405,-1.0276215,-1.5828010,-0.5294275,-0.4271286,-0.9824504,-1.2128283,-1.3912073,-0.7491134,-0.9596321,-1.1841360
-0.5846248,-0.1996044,-1.0261244,-0.3828120,-0.3082926,-1.1689168,-0.9769747,-0.7776802,-0.8459152,-1.0566263,-0.9792559,-1.3474818,-1.3398814,-0.9671165,0.0883990,-0.7475609,-0.6729359,-1.2029105,-0.6435660,-0.8988243,-1.1580391
-0.4737219,-0.1585563,-0.6825349,-0.2921804,-0.2557539,-1.1664286,-1.2480662,-1.1536815,-0.9285498,-1.2463430,-1.3511037,-1.1306392,-1.3294703,-1.3879359,-0.0768390,-0.8856844,-0.8488331,-1.6182908,-0.7179852,-0.7868400,-1.2631621
-0.4836040,-0.2840908,-0.3797725,-0.5560519,-0.2759423,-1.0293248,-1.1923000,-1.7409343,-0.9784296,-1.4226426,-1.1857151,-0.8965159,-1.3413864,-1.1094508,-0.6714050,-0.7717816,-0.7216913,-1.5407715,-0.9172728,-0.7749819,-1.0559609
-0.4912810,0.2941162,-0.3013404,-0.4602973,-0.2974952,-0.9407941,-0.8971502,-1.2479944,-0.8997900,-1.0598606,-1.1497240,-0.8162690,-1.2269694,-0.7514518,-0.3228657,-0.3248788,-0.5192711,-1.1874235,-0.1376480,-0.4267822,-0.6644265
-0.3991435,0.1641490,-0.0969276,-0.3167224,0.0344883,-1.0261496,-0.8656932,-1.2081856,-1.0877595,-1.2489735,-1.2069379,-0.7182983,-1.2634819,-0.7619324,-0.5824084,-0.7196807,-1.0341350,-0.9752192,-0.2347584,-0.5346009,-0.6188359
-0.6426076,0.2977915,0.0335064,-0.4764974,-0.2447566,-1.1424594,-0.8867690,-1.4586771,-1.4369260,-0.8842373,-1.4013972,-0.6188357,-1.2977102,-0.7420225,-0.4993846,-0.7330621,-0.6617799,-0.7107539,-0.3056240,-0.8614289,-0.7115268
-0.5706092,-0.2220703,-0.6590896,-0.2352778,0.4321473,-1.1679070,-0.6885923,-1.1388932,-0.7959839,-1.0426388,-1.4069008,-0.9866467,-1.4183902,-0.7414590,-0.1104264,-0.7586347,-1.3407404,-0.9526614,-0.2872542,-0.7853461,-0.8154010
-0.5453659,-0.0468778,-0.5249072,-0.0367333,-0.4559988,-1.0377829,-0.5945250,-1.0541945,-0.7296295,-1.1819515,-1.2811106,-1.3003263,-1.4582683,-0.5345632,-0.4448775,-0.9238864,-1.3321613,-0.7954808,-0.7004840,-0.7422526,-0.9627712
-0.6411371,-0.1004867,-0.2701971,-0.2706180,-0.2989464,-1.4692798,-0.6355624,-1.3252310,-0.5110778,-1.1781813,-1.6649930,-1.2604718,-1.6266910,-0.7178260,-0.2469385,-1.0702586,-1.3536036,-0.6340120,-0.7450794,-0.9295567,-0.7409753
-0.9189766,-0.2681047,-0.5087150,-0.3283400,0.2277013,-1.4642161,-0.5154563,-1.0056946,-0.7540980,-1.3005908,-1.3991083,-1.0371500,-1.1933775,-0.5082351,-0.1164573,-1.1099852,-0.9223894,-0.5239003,-0.9118346,-0.9948207,-0.5509360
-0.6730542,0.0546663,-0.3443151,-0.3737650,-0.1909274,-1.1294197,-0.7519131,-0.6792272,-0.6629378,-1.7583362,-1.6481529,-1.2654501,-1.1738862,-0.2713290,-0.3289543,-1.2011946,-1.5163909,-0.7308357,-0.4735311,-0.6353359,-0.6304492
-0.3929028,0.0680981,-0.5913290,-0.4531722,-0.3320784,-1.2986643,-1.0602125,-0.6619194,-0.7876563,-2.0084467,-1.6613890,-1.4437449,-1.3109322,-1.1258272,-0.9028649,-1.1103426,-1.2679737,-1.2704730,-0.7662039,-0.6593114,-0.9333952
-0.4766391,-0.1963332,-0.3692212,-0.7419358,-0.5639831,-1.3931824,-0.7994027,-1.0527629,-0.8540856,-1.1884996,-1.1962485,-1.0357136,-1.1362199,-1.1888185,-0.8464699,-1.3049705,-1.3638285,-1.1085541,-0.5506919,-1.1590438,-1.1394876
-0.5297529,0.0615581,-0.3069699,-0.8122334,-0.8137744,-0.8218888,-0.6475847,-1.1575242,-1.1895801,-1.6229814,-1.5209533,-1.4208366,-1.0269568,-1.0047797,-0.5722107,-1.3419030,-0.9469244,-1.1449196,-0.6437538,-0.9799735,-1.2439237
-0.5909147,0.2868447,-0.4322448,-0.8538014,-0.3639191,-0.7726941,-0.7640636,-1.0548637,-1.3437592,-1.7057538,-1.7748580,-1.3234439,-1.5220143,-0.9349732,-0.7919012,-1.4075642,-1.3915545,-1.3885949,-1.0427407,-0.9963099,-1.5769827
-0.8350847,-0.2120976,-0.3760192,-0.6761981,-0.9550125,-0.9552290,-0.9748471,-1.5378836,-1.6806626,-1.5249494,-1.5151812,-1.0806931,-1.4596074,-0.9377291,-1.4681240,-1.7127037,-1.8959335,-1.5213367,-1.6850724,-1.5426960,-1.6853602
-0.9800992,-0.1680600,-0.4943090,-0.8390130,-1.3703996,-1.1011142,-1.1769412,-1.6751698,-1.4741728,-1.8295101,-2.1179225,-1.5234324,-1.5159423,-1.4540293,-1.6265028,-1.9009923,-1.9166167,-1.6968565,-1.8483094,-1.7974398,-2.0635898
-1.0346475,-0.1014544,-0.7051019,-1.0407305,-1.3224671,-1.0461515,-1.2235408,-1.8794399,-1.8535438,-2.0654430,-1.7278223,-1.7745522,-1.8504617,-1.6934683,-1.8151010,-1.9064485,-2.1310682,-1.6908693,-1.5534669,-1.8288860,-2.2704284
-0.8496867,0.0771339,-0.7379155,-0.7364002,-0.4649247,-0.9425219,-1.1566917,-1.6310358,-2.2048132,-2.1839287,-1.7748078,-1.4679254,-1.6072903,-1.7797667,-1.4298025,-1.5731030,-1.6833044,-1.4692764,-1.5390990,-1.4570819,-1.7498692
-0.6418120,0.2709743,-0.0180437,-0.6189793,-0.6769176,-0.5653630,-0.5283250,-1.4567026,-1.8315860,-2.0830350,-1.5219800,-1.3602244,-1.3102344,-1.4604477,-0.8663210,-1.3566848,-0.9629370,-0.9891338,-1.2950580,-0.9114110,-1.0799172
-0.4335952,0.9170005,0.2454107,-0.4023415,-0.3922953,-0.1373210,-0.2991505,-1.0751606,-1.3459818,-1.7274934,-1.3292800,-0.9958314,-0.7997232,-0.3905722,-0.4621078,-1.0467170,-0.6515740,-0.5511615,-0.8299772,-0.5826210,-0.9619434
-0.4774846,0.9290219,0.4893477,-0.7419648,-0.0258796,-0.5857138,-0.4413975,-0.7138976,-0.8160371,-1.3280032,-1.1720254,-0.6253963,-0.5554314,-0.2154268,-0.2838780,-0.7811311,-0.7845824,-0.7228619,-0.5867248,-0.7706281,-0.9617391
-0.3722462,0.8260403,0.1709130,-0.6554930,-0.4249056,-0.9072773,-0.6422914,-0.6575783,-0.7268147,-1.7479236,-1.1796602,-0.5785415,-0.7539722,-0.4420271,-0.5510330,-1.2576152,-0.8304352,-0.6664699,-0.9538841,-0.8843681,-0.8719120
-0.5326633,1.3408581,0.0084107,-0.2721423,-0.3585440,-0.5290162,-0.8808304,-0.5207855,-1.1120180,-1.5243983,-1.1249640,-1.0240908,-0.9382299,-0.6243749,-0.7398295,-1.5488882,-0.8441315,-0.7002036,-0.9690754,-1.1460793,-0.6909383
-0.2329776,1.4521565,0.0969394,-0.0597310,-0.3197831,-0.4595284,-0.6706568,-0.9064543,-1.1460595,-1.5885758,-1.2111615,-0.8774360,-0.9510170,-0.5944682,-0.5574746,-1.2006999,-0.8665277,-0.8901142,-1.3764187,-1.2472465,-1.0611234
0.0221920,0.9911026,0.1698699,-0.4655745,-0.9235284,-0.8541383,-0.3886944,-1.2030123,-1.1786540,-1.2687483,-1.1111141,-0.6308578,-1.0097126,-0.5506638,-0.4024642,-1.0599923,-0.9785037,-1.0215217,-1.1508955,-1.1147114,-1.0998123
0.0693871,1.3042607,0.2222733,-0.1235587,-0.0438807,-0.8561608,-0.2001136,-0.9638116,-1.0762986,-1.3420213,-1.4360096,-1.1178900,-1.2207557,-0.7171628,-0.3975755,-0.9687858,-0.8157322,-0.7832615,-0.8645225,-1.5372409,-1.2184024
0.4940561,1.8367817,0.4954260,0.3821180,0.0221943,-1.0369709,-0.1344953,-0.5323388,-0.7496631,-1.5892781,-1.3673671,-1.4383399,-1.0714953,-0.2479379,-0.2639494,-0.9831718,-1.0205346,-0.7057280,-0.5539018,-1.3545732,-1.0316502
0.5756575,1.6764342,0.5297636,0.1958026,0.4453367,-0.8372490,-0.3943765,-0.8329412,-0.9993252,-1.4405178,-1.8140601,-1.0585321,-0.9734974,-0.1200845,-0.4561031,-1.2375227,-1.2433606,-1.1460884,-0.8273422,-1.1664828,-1.3225261
0.7344703,1.4075090,0.8808036,-0.0501616,-0.4030226,-0.9603209,-0.4910837,-0.9940897,-0.8913618,-1.5475638,-1.6685888,-1.2169794,-1.1183531,-0.7652881,-1.1581726,-1.6148332,-1.5470321,-1.4897444,-1.4209418,-1.8625456,-1.4928467
0.4452293,1.7998554,1.0197202,-0.2511615,-0.0068450,-0.7043982,-0.5276108,-0.9967830,-1.4377204,-1.4527131,-1.3597507,-1.8413084,-1.2354375,-1.1363643,-1.1850613,-1.5135738,-1.8486296,-1.4652098,-1.8469237,-2.0080712,-1.8374860
0.5068927,1.8221335,1.0660585,-0.0330239,-0.1273267,-0.6755056,-0.3819681,-0.6482219,-1.0931631,-1.4378436,-1.4188668,-1.3577039,-1.2813056,-1.0677087,-1.2105567,-1.6607469,-2.0715685,-1.6609960,-2.2163088,-1.9818679,-2.1100214
0.4885729,1.4513563,0.9915255,-0.7709379,-0.7734311,-0.3738637,-0.5821331,-0.8664923,-1.4125259,-2.2095761,-1.5247769,-1.0844007,-1.3269080,-1.3261807,-1.7465006,-1.7935232,-2.3129432,-2.0225203,-2.0941846,-1.9429117,-2.3278630
0.2233313,2.0390964,0.7992914,-1.3617146,-0.6384488,-0.2552215,-0.7134560,-1.4376097,-1.9124206,-2.3253942,-1.6037385,-1.4643592,-1.5727186,-1.3057934,-1.8991476,-1.9733390,-1.8406963,-1.8540816,-2.3881953,-2.0503039,-2.3159640
0.0537547,2.5070398,0.8481771,-1.2773139,-0.4070739,-0.3420554,-0.9669974,-2.0892773,-1.7662483,-2.3467176,-1.5555311,-1.3605647,-1.3686260,-1.4036341,-2.1756487,-2.0997114,-1.7545309,-1.8576791,-2.6050365,-2.0606656,-2.1831982
0.1296547,2.2082283,0.8349432,-0.9332886,-0.6877244,-0.6219138,-1.1383978,-1.9181732,-1.9473491,-2.2341502,-1.5381887,-0.7530307,-1.2605573,-1.4599518,-2.2882032,-2.1489532,-2.0115099,-2.1199546,-2.4553373,-2.1961164,-2.1047347
0.2411039,2.3271050,0.6940770,-0.7871028,-0.3563348,-0.6394998,-1.2357020,-1.8002522,-2.3489735,-2.2056210,-1.2715843,-1.4232476,-1.6035742,-1.8293148,-2.4621518,-2.0744069,-1.9585233,-2.2353678,-2.7150230,-2.0346620,-2.1471965
0.4699481,2.5507326,1.2486389,-0.3304946,0.2235676,-0.4872110,-0.9042136,-1.1423075,-1.4591208,-2.1843317,-1.4822615,-2.0074532,-1.5349998,-1.8995206,-2.1026137,-1.8463858,-2.0591030,-2.0655029,-2.5093784,-2.2204931,-2.1947095
0.8671768,2.7044439,1.4939446,-0.7108157,0.0003492,-0.3432799,-0.5340097,-0.9669834,-1.3275874,-2.4145944,-1.5096517,-1.2342520,-1.2031056,-1.7109294,-1.6890837,-1.9947118,-1.9140724,-1.6973703,-2.3376710,-2.2815199,-1.6589426
1.1483010,2.4472651,1.4844555,-0.5510448,0.1626023,-0.6795798,-0.4841864,-1.2817006,-1.8842324,-2.0584795,-1.6537244,-1.4632230,-1.5258294,-0.9177821,-1.7748803,-1.8830628,-1.8465421,-1.6031686,-2.2252324,-1.9264392,-1.3122435
1.3765582,2.4878790,1.5057099,-0.9893708,0.2017336,-0.9340711,-0.4847340,-1.5907027,-2.0828788,-1.7547864,-1.7576309,-1.7856283,-1.4268552,-1.2058142,-1.9200366,-2.0533814,-1.6951373,-1.7806098,-2.5832059,-2.1301711,-1.8720363
1.1655289,2.2684519,1.2859918,-1.0611690,0.0497057,-0.8661090,-0.8187006,-1.5834062,-2.1305027,-2.3436966,-2.1496785,-1.8642609,-1.6782682,-1.6877935,-2.3918869,-2.1650374,-1.8647647,-2.1264195,-2.4705784,-2.3017011,-2.3490493
0.8941584,2.0907254,0.9836367,-0.8093551,-0.1353598,-1.1302494,-0.7937075,-1.3667185,-2.4833126,-2.4785469,-2.2544835,-1.5314232,-1.8526053,-1.7521666,-2.4794405,-2.1750710,-2.0014386,-1.7250310,-2.7406650,-2.3277776,-2.5658920
0.9431296,2.4482789,1.0529735,-0.3561777,0.5372809,-1.2519476,-1.0099788,-1.5319079,-2.5879838,-2.4911845,-1.8432524,-2.0871089,-1.7546239,-1.8117771,-1.7907721,-2.1951406,-2.3864541,-1.8838218,-2.6157112,-2.5335352,-2.5102105
1.1184701,2.5215008,0.8935543,-0.2100447,0.5785705,-1.0971889,-0.9551320,-1.6008426,-2.1950595,-2.5356784,-1.9578327,-1.9904834,-1.6025152,-1.5716187,-2.0467520,-2.3034453,-2.3588448,-2.0177579,-2.3607826,-2.4083071,-2.0618649
1.1604440,2.7218730,1.0382719,-0.3392630,1.0482417,-0.4893288,-0.6570810,-1.8021431,-1.7952611,-2.3023808,-2.2414827,-1.7003222,-1.4175403,-1.1895255,-2.1566639,-2.0855632,-2.1163566,-1.6236950,-2.7488289,-2.5380871,-2.3907127
1.4630433,2.9191446,1.6617488,0.1685420,1.0399560,-0.5159897,-0.1304561,-1.1270450,-1.3168653,-2.6524074,-1.7858500,-1.9770714,-1.2400019,-0.6718283,-1.5422463,-1.9644464,-1.7804054,-1.0281034,-2.2870214,-2.5287085,-2.2232676
1.3588476,3.1406689,1.8151116,-0.0045909,1.3471919,-0.2916757,-0.0117373,-0.5861007,-1.0299196,-2.2419531,-1.7656813,-2.0688868,-0.9132757,-0.2860423,-0.6835847,-1.3924558,-1.3855302,-1.0931309,-1.4844805,-1.9279672,-1.5631638
1.0496023,2.8375988,1.4536297,0.2631489,1.7544087,-0.4900047,-0.1601278,-0.7470960,-0.6987165,-1.3529454,-2.0485530,-1.4817214,-0.7062140,-0.0410523,-0.4892945,-1.2121485,-0.9830065,-1.1308452,-1.1486113,-1.5262667,-1.2779379
0.9296490,1.9945495,1.6766433,-0.1731083,0.5724761,-0.1604697,0.1500328,-1.0365516,-1.0326014,-1.3762816,-1.9025048,-1.5869452,-0.6773683,0.0662522,-0.3652196,-1.1342019,-0.9484677,-0.5331537,-1.1205882,-1.6850371,-1.1528649
0.6947668,2.0943389,1.5079035,-0.4531078,0.0974089,-0.1687295,0.0416448,-0.9665121,-1.0328182,-1.3449668,-1.8340352,-1.3797060,-0.7059312,0.0705181,-0.4346877,-1.1796141,-1.1600068,-0.4410130,-1.1142496,-1.6389276,-1.1566085
0.5872300,2.1333199,0.7271590,-0.5960338,0.4859883,-0.4996174,-0.4093948,-1.0402402,-0.7831430,-1.2808485,-1.5828161,-1.0954249,-0.6324412,-0.2012775,-0.7700729,-1.6411096,-1.3138866,-1.0546622,-1.4837226,-1.5888968,-1.5011661
0.4844294,1.9046921,0.4987999,-0.4520429,-0.1207524,-0.7932428,-0.9889967,-1.1576868,-0.8728796,-0.9038233,-1.2464156,-0.8398362,-1.0347093,-0.8850392,-0.8640530,-1.4809890,-1.6502692,-1.3247267,-1.9225891,-1.7226748,-1.5032171
0.0782783,1.6563926,0.7618049,-0.6477300,0.0112133,-0.6513234,-0.9478744,-1.2218447,-0.8613072,-1.3540498,-1.0871009,-1.4550050,-1.2959406,-1.1051813,-0.6003090,-1.5348425,-1.6396198,-1.1675885,-1.5934745,-1.7163613,-1.3701601
0.0564529,1.4419452,0.7768942,-1.2782241,-0.2316464,-1.1445355,-0.7793355,-0.6727811,-0.9992278,-1.4816662,-1.3042872,-1.4515742,-1.2354906,-0.8239757,-0.5229480,-1.2012718,-1.2712218,-1.1485617,-1.2765521,-1.3829875,-1.1131651
0.0222797,1.2128582,0.7642930,-1.1129948,-0.5677035,-0.8198014,-0.5703907,-0.9927344,-1.6024624,-1.3305198,-1.3767505,-0.6939215,-0.7990774,-0.4926551,-0.8452559,-1.3963506,-0.9933308,-0.7214978,-1.5201366,-1.3931446,-0.9035335
-0.2454475,0.9477010,0.6597487,-1.2017403,-0.9776861,-0.5555940,-0.5312992,-1.5710524,-1.6795226,-1.1519815,-0.7961092,-0.8952973,-0.6901374,-0.4178285,-0.4571764,-1.3444445,-1.0701046,-0.6232156,-1.6235262,-1.2948242,-0.5686608
-0.3600038,1.2642852,0.5621664,-0.8171986,-1.0249228,-0.7892225,-0.7242187,-1.4759526,-1.2964071,-1.0137013,-0.9044677,-0.9503815,-0.6577044,-0.5378564,-0.4079655,-1.4018005,-1.0060463,-1.0333703,-1.4240336,-1.3917903,-0.8620439
-0.1620033,0.8804721,0.3758997,-0.7738000,-0.7011223,-1.2312771,-0.9278334,-1.3899291,-1.1703163,-0.7925506,-1.1689630,-0.5887259,-0.7296858,-0.9491779,-0.0140682,-1.1457758,-1.1657104,-0.9938185,-1.5803788,-1.4513215,-1.0664263
0.1217750,1.1689135,0.0322369,-0.7441175,0.2143625,-1.3742782,-0.7606786,-0.6330383,-0.5069061,-0.6337540,-0.9296154,-0.5920434,-0.6042064,-0.7311925,0.8080965,-1.0190954,-0.5748566,-0.7683713,-0.7137535,-1.0390078,-0.7209705
-0.1515264,1.1842853,-0.0987762,0.4696563,0.4441892,-1.1192589,-0.7422846,0.1555628,-0.1672732,-0.3855035,-0.7132924,-0.8633016,-0.6458918,-0.3622707,-0.1346332,-0.8179477,-0.4202228,-0.7414013,-0.5806388,-0.9898184,-0.6147763
-0.0897527,0.9324887,0.0407775,0.1916844,0.7047169,-0.8422430,-0.8985347,-0.2987550,-0.2053763,-0.3965797,-0.8763934,-0.7385774,-0.9544393,-0.4681092,-0.1186171,-0.9523838,-0.5966361,-0.6600698,-0.5874180,-1.0827332,-0.6807033
-0.1022022,0.7183954,0.3247017,0.1726288,0.2208854,-1.0890023,-0.7647482,-0.7307906,-0.4425277,-0.6941800,-1.2967653,-0.7834991,-0.7845508,-0.1716538,-0.2009896,-1.1157646,-1.0415484,-0.9434577,-1.0153555,-1.5498507,-1.0876861
-0.0934247,0.7278992,0.2441018,0.1958020,0.1274270,-1.4905205,-0.7044032,-0.5002648,-0.6517013,-1.2849803,-1.4398470,-1.2060815,-1.0086844,-0.4822056,0.2403052,-0.7490847,-0.7890670,-1.0372242,-0.9768870,-1.5536398,-1.3911349
-0.2626841,0.6730327,0.5291689,-0.2775755,-0.0430823,-1.2342699,-0.7536930,-0.6863914,-0.9844099,-1.1468062,-1.4524894,-0.9628501,-0.7648477,-0.3695972,0.2807473,-0.9216118,-0.7059249,-1.0467962,-0.9120467,-1.5244877,-0.9105557
-0.3080906,0.6561352,0.4784028,-0.3591147,-0.0328263,-0.9339206,-0.3774937,-0.9423146,-0.6985018,-1.3818669,-1.5251238,-0.6934646,-0.6178547,-0.0033062,0.4044053,-1.2282482,-1.1843463,-0.8344876,-0.9924344,-1.4667621,-1.0707639
-0.0646919,0.5743250,0.4580556,-0.1006470,-0.5053762,-0.8564188,-0.4540349,-0.7190430,-0.5097632,-1.3425173,-1.2109352,-1.1185927,-0.4990198,0.0513719,0.3018641,-1.1011007,-1.1740131,-0.8455724,-0.8368467,-1.1852885,-1.1141139
-0.0898199,0.5538814,0.6376514,0.2468572,0.0307347,-0.6850688,-0.4241847,-0.5686450,-0.5931782,-1.0900469,-1.1271900,-1.1080401,-0.4721566,-0.0992964,0.4571728,-0.9564977,-0.5839964,-0.9949707,-0.6054946,-1.1355236,-0.5860569
-0.1418182,0.6391864,0.4414504,0.5583895,0.4224676,-1.0264409,-0.2296754,-0.3955319,-0.7063304,-1.0229967,-1.2155734,-0.4616024,-0.5708107,-0.0552657,0.5334743,-0.6849733,-0.2754176,-0.8542422,0.0178379,-0.9447555,-0.2540917
0.0792532,0.5405872,0.4758492,0.5173548,0.1352166,-1.0806926,-0.1561544,-0.2982525,-0.2007983,-0.6266176,-1.4676925,-0.6800492,-0.6523882,-0.0208539,0.5491158,-1.2998817,-0.7668443,-0.9086701,-0.0221650,-0.6884652,-0.2435879
0.2024893,0.6825265,0.3217766,-0.1550523,0.3734253,-0.9269661,-0.3799195,-0.2609347,0.1112776,-0.6115633,-1.4863148,-1.4036868,-0.8019890,-0.3105327,0.1066815,-0.9395368,-1.0573698,-0.7458361,-0.4888467,-0.8401133,-0.3768065
-0.3295963,0.2207521,0.3783298,-0.4465049,0.2087127,-1.7632711,-0.5738723,-0.4810688,-0.3944815,-0.4680738,-1.4591632,-0.9094946,-0.8414840,-0.1350163,-0.4649513,-1.2750752,-0.8433231,-0.8061826,-1.1366386,-0.8429188,-0.3679827
-0.6369936,0.8575155,0.4334209,-0.5115376,-0.1227760,-1.5903068,-0.6187961,-1.0224214,-1.0827024,-0.9232476,-1.5274634,-0.3615119,-0.6273633,-0.1362469,-0.8197609,-1.2763433,-0.9393865,-0.9361082,-1.4464412,-1.1993797,-0.5151531
-0.4425204,0.9893698,0.4412923,-0.5645546,-0.3539100,-0.9916912,-0.4328900,-1.2094138,-1.2046715,-1.5318645,-1.4888034,-1.1433361,-0.5936872,-0.1465502,-0.9318649,-1.5431335,-1.2928108,-0.9878470,-1.2732478,-1.2192135,-0.8735317
-0.6306921,0.9698917,0.2842054,-0.4915574,-0.2432294,-0.7551614,-0.5077428,-1.4299117,-1.2962981,-1.3820615,-1.5541677,-1.0753340,-0.6435968,-0.5106089,-0.9472844,-1.6281036,-1.4236805,-1.2067707,-1.3549727,-1.4851788,-0.9313717
-0.7445173,0.4177834,0.2080858,-0.7137623,-0.7891537,-1.1253219,-0.7716214,-1.5655826,-1.4980690,-0.9976320,-1.3963044,-0.8892212,-0.7321099,-0.3953018,-0.7992786,-1.7858720,-1.2823451,-1.2076430,-1.4044251,-1.3413525,-0.7916374
-0.6010040,0.3541308,-0.1735077,-0.2088937,-0.9138510,-1.2435656,-0.7975233,-1.0408224,-1.6487960,-1.7169334,-1.2454768,-1.0021677,-0.9407479,-0.2602388,-0.5645703,-1.4895737,-0.9116818,-1.0867423,-1.3182875,-1.0931991,-0.9950525
-0.5014235,0.1939391,-0.1905352,-0.2010524,-0.5656968,-0.8370048,-0.6648170,-0.7166341,-1.0648770,-1.6576111,-1.2599515,-1.0973479,-0.5704733,-0.4651405,-0.4270948,-1.2643968,-0.5899144,-0.8910075,-1.1290840,-1.0478435,-0.8042270
-0.4990758,0.2559151,-0.3612120,-0.4178683,-0.3343561,-0.3809465,-0.6984995,-0.7826313,-1.0049585,-1.2310969,-0.6917270,-0.0904682,-0.1733444,-0.0141860,0.0035698,-1.2420418,-0.5640362,-0.6784401,-1.0970663,-0.9069479,-0.1309746
-0.3150751,0.1235855,-0.3842712,-0.0130099,-0.3389203,-0.8264585,-0.4639415,-0.4871516,-0.4136762,-1.1152561,-0.8892707,-0.5846476,-0.2083860,0.1513137,0.5023196,-1.1000917,-0.4495116,-0.6873575,-0.7505810,-0.6091350,-0.0584427
-0.4053510,0.5230568,-0.4464765,0.0488280,0.2862992,-0.8235435,-0.5689738,-0.1669700,-0.5414138,-0.8142980,-0.9915249,-1.0155201,-0.3540657,-0.1111052,0.4187326,-1.0566351,-0.4797872,-0.3901035,-0.6896050,-0.5544560,-0.1608348
-0.5390779,0.5297003,0.1859164,0.0469300,-0.4616363,-0.9272819,-0.6659930,-0.4409157,-0.5701690,-0.7478784,-0.6139819,-0.5396746,-0.1816391,-0.0650056,0.1395068,-1.0256219,-0.4267710,-0.4313007,-0.6141770,-0.3061479,-0.3283992
-0.6317653,0.2852499,-0.0590729,-0.1272181,-0.4242814,-1.0677308,-0.2639588,-0.8761165,-0.7660556,-0.7709023,-0.9908495,-0.6580841,-0.6440696,-0.1909074,0.1768365,-0.9870377,-0.6199377,-0.7964870,-0.5447873,-0.6508435,-0.4534861
-0.5469286,0.4954484,-0.0509661,-0.0094657,0.1157720,-1.2516766,-0.2188002,-0.6705236,-0.8206794,-0.6888359,-1.0870007,-0.9155497,-0.6162570,-0.3191308,0.3792052,-0.6858445,-0.4426766,-0.8668293,-0.3761979,-0.6160720,-0.4469841
-0.3114069,0.6461673,-0.3201943,0.0549927,-0.2635287,-1.3234754,-0.2426509,-0.7019562,-0.6496782,-0.9078203,-0.9131302,-0.5473568,-0.3443837,-0.3493567,0.2857492,-0.6598371,-0.1390984,-0.7250963,-0.6010867,-0.8742466,-0.3311453
-0.3421452,0.1904984,-0.7075391,0.0658537,-0.3588285,-1.2344236,-0.3196077,-0.4911019,-0.8481519,-0.6871825,-0.5284771,-0.8097153,-0.0895824,-0.1524616,0.5517474,-0.5418851,-0.3977167,-0.2766740,-0.8048102,-0.6022257,-0.3050749
-0.2342606,0.0877170,-0.6423187,0.1195586,-0.7172640,-1.2685146,-0.2348269,-0.1409546,-0.5044360,-0.6985164,-0.6063778,-0.9029965,-0.2814892,-0.0551185,0.5606620,-0.3120649,-0.2723718,-0.8027701,-0.2526676,-0.7216099,-0.4437849
-0.2228148,0.3986486,0.0699936,0.3536837,-0.2098702,-1.4094856,-0.2555017,-0.3510033,-0.1434116,-0.5984241,-0.8589038,-1.1759183,-0.4751748,-0.3977065,0.2963867,-0.3658062,-0.5067075,-0.7029983,-0.3104650,-0.5774048,-0.4354608
-0.3965669,-0.0404752,-0.4303311,0.1391653,-1.0180418,-1.0622973,-0.5889794,-0.5163172,-0.5165845,-0.9155142,-1.1262747,-0.6641970,-0.2862540,-0.0211442,0.1950630,-0.5057263,-0.0488570,-0.7007482,-0.2583349,-0.2074530,-0.2516959
-0.6108864,-0.0723321,-0.6424839,-0.0725595,-0.6342272,-1.0967652,-0.8005545,-0.8547946,-0.6907449,-1.0556668,-1.0698282,-0.5195162,-0.3619542,-0.3677770,-0.2702819,-0.8575424,-0.7844620,-0.8681682,-0.2665339,-0.5134087,-0.2772133
-0.6150435,-0.0504904,-0.1563767,-0.3762634,-0.5491073,-1.2833071,-0.9049692,-0.9397344,-1.0464870,-1.1261770,-0.9890934,-1.0244358,-0.8649809,-0.7642500,-0.2287102,-1.0357847,-0.9278898,-0.9640407,-0.3292699,-0.6369711,-0.5474010
-0.7448695,0.0467098,-0.0127469,-0.4600660,-0.7402697,-1.2062258,-1.0422390,-1.0261724,-1.1842676,-1.0797412,-1.0719951,-0.7539678,-0.7819454,-0.5219085,-0.5038542,-1.0750546,-0.7686933,-1.0721734,-0.2807710,-0.8177924,-0.4668544
-0.6859385,-0.2615836,-0.0124272,0.2633565,-0.5959328,-1.1416281,-0.8857207,-0.4705548,-0.3727976,-0.8122931,-0.8625642,-0.0097254,-0.7184476,-0.0994066,0.2673367,-0.7504213,-0.5021292,-0.8482100,0.0277777,-0.4186410,-0.4012804
-0.6124905,0.4194407,-0.3397451,0.1529007,0.1263519,-1.2800833,-0.7022241,-0.1240534,0.3443433,-0.6641352,-0.9942809,-0.2611065,-0.5932130,-0.3103409,0.7680879,-0.3351864,-0.5481521,-0.9661844,0.6039386,-0.3536722,-0.1957956
-0.1767503,0.8584706,-0.4207208,0.7259978,0.5563334,-1.4398669,-0.8365280,0.3630922,0.4802726,-0.2066238,-0.8336920,-0.4567101,-0.7616311,-0.3825192,1.0214647,-0.3746000,-0.4628768,-1.0652344,0.4973512,-0.2728602,-0.2305943
-0.1766913,0.0730709,-0.5002022,0.7631135,0.0911739,-1.3488872,-0.8702056,0.2286730,0.4262926,0.0870171,-1.1309903,0.0035718,-0.7557177,-0.6432849,1.5293453,-0.3638306,-0.5314891,-0.8269150,0.7385866,-0.0493923,-0.1960364
-0.2800704,0.2965013,-0.3342794,0.3776759,-0.1375650,-0.9089608,-0.6214370,-0.2046090,-0.1365326,-0.3910814,-1.0998689,-0.6120460,-0.8470695,-0.6609309,1.4731791,-0.6151485,-0.4112167,-0.4486544,0.9261787,-0.1582068,0.0677379
-0.1537115,0.9646584,0.1835078,1.0333214,0.1553562,-1.1102983,-0.4858778,0.3077742,-0.0173552,-0.3791566,-1.0467577,-0.5101352,-0.2626366,-0.0277035,1.6644262,-0.5052976,-0.1952857,-0.2484244,0.7647408,-0.2952316,0.2760657
-0.1508721,0.5425853,0.5879938,0.6029649,0.2071030,-0.8121987,0.0558028,0.2248859,0.0804916,-0.0497174,-1.3757044,0.2260045,-0.2691957,0.0148719,1.2917144,-0.7866557,0.1127028,-0.1356245,0.6074141,-0.0791487,0.5582480
-0.1779705,0.4231887,0.1755656,0.3896350,-0.2777309,-1.0866641,0.1437044,0.2332967,-0.0829133,-0.0171774,-1.1373863,0.2908226,-0.1303234,0.5381109,1.1847808,-0.7025912,0.0661819,0.1783346,0.6856107,-0.1528987,0.4864945
-0.1724485,0.5389471,0.3186923,0.2480841,-0.0608106,-0.9914939,-0.1304795,0.0770620,0.1189670,-0.2452098,-0.6772192,-0.2175287,0.0425999,0.5639242,0.6060993,-0.4154913,0.2742996,0.0712516,0.6528717,-0.5286332,0.2633558
-0.2493882,0.2817906,0.1735475,0.5918696,-0.0645548,-1.3779488,-0.3849689,-0.0560800,0.3591856,-0.1308694,-0.9162735,-0.1563944,0.1432928,0.2889767,0.6959557,-0.4470097,-0.0627491,-0.3296580,0.3445993,-0.3240550,0.2066157
-0.3931399,0.5680608,0.2237007,0.7677966,0.1970167,-1.2483792,-0.4237819,0.0817277,0.5527407,0.1149836,-0.8926798,-0.1355572,-0.1853193,0.2085882,1.2165482,-0.5974967,-0.2221308,-0.0138842,0.8206090,-0.3625921,0.4230596
-0.4347026,0.2767508,0.0212809,0.5889989,0.0520892,-0.8499681,-0.3950784,0.4390621,0.5737398,0.1876584,-0.9680677,-0.5380409,-0.0418083,0.2372828,0.9782222,-0.3396067,-0.0098382,-0.3398229,0.9894090,-0.1967404,0.4703566
-0.1802366,0.5051254,0.5368309,0.5683167,0.7666851,-1.0584861,-0.4100742,0.2309037,0.1661742,0.0780696,-0.6992376,-0.6508865,-0.2391416,0.3334018,1.2963121,-0.1213753,-0.1556752,-0.4988789,0.7611140,-0.2385159,0.1679665
0.0021137,0.7849125,0.6993247,0.5261894,-0.3748868,-1.2226701,-0.3530243,0.0515779,0.2658441,0.1797884,-0.9454383,-0.3974885,-0.3854176,0.1171944,1.4306706,-0.5689924,-0.4148952,-0.5842538,0.7310438,-0.0808218,0.2049494
-0.2454978,0.5690494,0.0485378,0.2426095,-0.6351758,-1.1115630,-0.6044026,0.2911620,-0.2184840,0.2844329,-0.8488206,-0.4151027,-0.4754901,-0.1267500,1.2999818,-0.7344534,-0.3861558,-0.6519449,0.7790682,-0.1384705,0.3647319
-0.5029367,0.5034294,-0.2895564,0.0384086,-0.7664319,-1.0474815,-0.6877910,0.1552873,-0.1064162,-0.0882820,-0.9721369,-0.8089145,-0.4798822,-0.3102353,0.5972867,-0.6097588,-0.3516172,-0.5174493,0.9602439,-0.5723455,-0.0900961
-0.4918559,0.2043101,-0.0032212,-0.2287074,-0.9195870,-1.3206040,-0.8425312,-0.2872162,-0.2650091,0.0388981,-1.0181690,-0.5075044,-0.3911823,-0.2186844,0.4470337,-0.7236794,-0.2018195,-0.6094439,0.7089574,-0.2566003,0.0501840
-0.5995058,-0.1565057,-0.2282759,0.1290435,-0.9026305,-1.5638090,-0.8206698,-0.2329068,-0.3944132,0.0735869,-0.6425921,-0.3819499,-0.3649446,0.0650541,1.0148667,-0.4062387,0.1707613,-0.6136720,0.8387254,-0.1066671,0.2355049
-0.6705140,-0.1522527,-0.1245008,0.4817122,-0.5410959,-1.2270354,-0.6021343,-0.1499949,-0.1774587,0.0499257,-0.6547884,-0.4737282,-0.5758485,-0.1570702,1.0487188,-0.4891340,0.2217941,-0.8593654,0.7679618,0.0481035,-0.2550350
-0.7436147,-0.0366174,-0.1703877,-0.0383823,0.0491821,-1.4294188,-0.5282851,-0.1795337,-0.1383504,-0.0626122,-0.7859744,-0.1021440,-0.5548109,-0.0819149,1.1762846,-0.5574411,-0.2044899,-0.6806760,0.6970000,-0.2101871,-0.4251846
-0.9132791,-0.0382030,-0.3512561,0.4144919,-0.3121260,-1.4561566,-0.7053193,0.2840326,-0.1193127,-0.1925151,-0.8749971,-0.2992267,-0.5753894,0.1684646,1.2673311,-0.6623234,-0.2480368,-0.6810589,0.5718730,-0.5312979,-0.4044177
-0.8634474,0.3732713,-0.7453522,0.4913162,-0.9930125,-1.0475078,-0.6999484,0.3174131,-0.2067326,-0.1034742,-0.5291790,-0.5320030,-0.6374319,0.0047772,0.9174226,-0.6449373,-0.2055359,-0.4573701,0.5940642,-0.6457472,-0.6448635
-0.5223776,0.1312981,-0.8103104,0.1733497,-0.4768036,-1.2564695,-0.7634075,-0.3818685,-0.0823393,-0.1385888,-0.5528778,-0.4962525,-0.5198521,-0.4534258,0.7819072,-0.5738106,0.0144509,-0.6835103,0.2247685,-0.5115929,-0.7290516
-0.6668639,-0.0034683,-0.8797718,0.4325783,-0.8199630,-1.3345709,-0.8780857,-0.3462688,-0.1570664,0.1280647,-0.8432747,-0.1452104,-0.6194296,-0.1259979,1.0310342,-0.7637653,-0.4674279,-0.6433191,0.3210369,-0.7421021,-0.4982739
-0.6044639,0.1750168,-0.5119898,0.5889781,-1.5550902,-1.1937666,-0.7506648,-0.0663100,-0.2695538,-0.3135177,-0.5670936,-0.6866265,-0.7365135,-0.0348145,1.0108055,-0.9360415,-0.7907468,-0.8114228,0.1803857,-1.0349706,-0.8236266
-0.5559640,0.3404455,-0.5373707,0.1570762,-1.2196453,-1.0667520,-0.9355524,-0.0066626,-0.2192640,-0.6246918,-0.4493395,-0.7081104,-0.6772626,-0.2443753,0.6718677,-1.0200051,-0.5748948,-1.1306672,0.0653314,-1.1465927,-1.1073897
-0.6584219,0.1465494,-0.8480785,0.3892502,-1.0791785,-1.5011905,-1.2409639,-0.3471629,-0.3445490,-0.6945197,-0.6910068,-0.4187639,-0.9043623,-0.5482160,0.1113963,-1.2894826,-0.8686841,-1.3846666,-0.4823244,-1.2069873,-1.4962542
-0.9349204,-0.0147517,-0.9947895,-0.0566829,-1.4981589,-1.5757521,-1.3352662,-0.9118243,-0.9509765,-0.5815264,-1.0140198,-0.7414504,-1.4627756,-0.9644887,0.0709018,-1.3507375,-1.4409063,-1.2966884,-0.6542591,-1.6540500,-1.3806170
-0.9741161,-0.0197858,-0.8193234,-0.4919814,-1.2596874,-1.2717463,-1.1551470,-0.7703534,-0.7543247,-0.7699161,-0.6131961,-0.8729305,-1.0413718,-1.0743914,-0.1165580,-1.4144698,-1.0528220,-1.0310197,-0.0357426,-1.5167683,-1.0642689
-0.7754680,-0.2054215,-0.4957750,-0.6200377,-0.9816425,-0.6939610,-0.9348569,-0.8889118,-0.8759254,-1.0292015,-0.6082286,-0.7289804,-0.6743510,-0.3664874,-0.0541518,-1.3861009,-0.5416571,-0.5845411,-0.2301176,-1.0258181,-0.8091276
-0.7040704,-0.4829659,-0.7363655,-0.6987270,-1.4221306,-0.8873582,-0.9159479,-0.8683976,-0.6486309,-0.6587875,-0.7483885,-0.3528706,-0.8359426,-0.4662443,0.0084489,-1.2285793,-0.6304682,-0.5001737,-0.4558827,-0.9279531,-1.1935434
-0.5787155,-0.2217039,-0.4647684,-0.1445237,-1.0002047,-1.1114137,-0.7892948,-0.3075759,-0.3670791,-0.1791240,-0.4634257,-0.7358087,-0.7142398,-0.3426172,0.5447903,-1.0545752,-0.3686675,-0.5935892,0.2562988,-0.6958371,-0.9696470
-0.5695251,-0.1581760,-0.7590179,-0.0873518,-0.7210370,-0.9183446,-0.9792188,-0.6152758,-0.3102498,-0.0291748,-0.5900168,-1.0749451,-0.6619485,-0.2277043,0.1362272,-1.0169050,-0.6809950,-0.8556437,0.2766880,-0.4544158,-0.7006616
-0.8735018,-0.6729925,-1.0042504,-0.3821538,-0.5349597,-1.3929398,-1.0533788,-0.9681552,-0.5981470,-0.5085670,-0.6565800,-0.9846991,-0.9402800,-0.4611954,0.0595458,-1.3261551,-0.9414710,-0.8921519,0.1172982,-0.8727888,-0.5720933
-0.9984357,-0.6705398,-1.1181138,-0.0069503,-0.8595096,-1.4126468,-1.1322727,-1.0577810,-0.9365072,-0.7642193,-1.1278467,-0.9547874,-0.9257306,-0.5333295,0.2823967,-1.1357192,-0.9847069,-0.8488659,0.3341577,-1.0748383,-0.5248134
-0.9163624,-0.2755527,-1.0987108,-0.0820211,-0.5343395,-1.3878061,-1.0023093,-0.8320067,-0.2992734,-0.6672298,-0.8173643,-1.0436239,-0.6323386,-0.2889493,0.4312648,-0.9080579,-0.5954807,-0.6334485,0.8020443,-0.7920224,-0.6386263
-0.8763731,-0.1963542,-1.3772349,-0.3148507,-1.0942074,-1.3512522,-1.1964365,-0.8430133,-0.5909366,-0.3621334,-0.8443587,-0.5366424,-0.8287723,-0.1272964,0.1545404,-0.9454733,-0.9840328,-1.0293394,0.3299929,-1.1280068,-1.1859419
-1.0403864,-0.1077757,-1.3861479,-0.2813126,-0.4602449,-1.3129413,-1.1947792,-1.0500488,-0.6962544,-0.6979558,-1.1597667,-0.2396387,-0.9761832,-0.4478009,-0.0316929,-1.0698735,-0.8730837,-0.9987409,0.1769511,-1.3328478,-1.1870883
-0.9613627,-0.0024967,-1.3013905,-0.4918074,-0.6335896,-1.4950217,-1.2282511,-0.8081853,-0.5134686,-0.7722110,-0.8011555,-0.8451039,-0.9326093,-0.6563410,-0.1740812,-0.9211266,-0.9102031,-1.1449738,-0.0381839,-1.2900214,-1.1486821
-0.6992543,-0.5590258,-0.9138609,-0.2290766,-1.2021663,-1.3980064,-1.3634944,-0.9672220,-0.4042810,-0.7409958,-0.7517687,-0.6247048,-1.3501633,-0.8569894,-0.1081546,-0.6605884,-1.0312515,-1.1700592,-0.3662041,-1.2303277,-0.7757376
-0.7869171,-0.6068521,-1.0757828,-0.5542080,-1.0202590,-1.6590985,-1.2980014,-1.1123163,-0.4040220,-0.6629742,-0.7399825,-0.6103409,-1.4399810,-0.5816636,0.0720964,-0.8933364,-1.6256983,-1.3336550,-0.3805318,-1.1434342,-1.0399193
-0.9253119,-0.3994215,-0.6922323,-0.4160952,-0.7621421,-1.3707141,-1.1409571,-0.6867014,-0.1830704,-0.6226902,-1.0017495,-1.3412297,-1.2416611,-0.7841316,0.4754028,-0.9116710,-0.9294246,-1.0043497,-0.1764559,-0.9016338,-0.7631859
-0.8207487,0.1676708,-0.3629119,-0.0990129,-0.4098807,-1.2771301,-0.9425833,-0.5469232,0.2094578,-0.1768174,-0.8059081,-1.0954852,-0.9670409,-0.1065017,0.6955010,-0.7144570,-0.5952048,-0.9946018,-0.0167809,-0.3097089,-0.6596696
-0.7563332,-0.1427802,-0.4111409,-0.2370284,-0.2350624,-1.7596945,-1.0086825,-0.7530529,0.2172024,-0.1352421,-0.6473106,-0.3716753,-0.9020088,-0.1846995,0.5547086,-0.7499841,-0.8702027,-0.9134834,0.1600892,-0.5264102,-0.7217073
-0.5257487,-0.2260441,-0.8611095,0.1683319,-0.1716898,-1.1974968,-1.1836618,-0.3901516,0.2637830,0.1606225,-0.5757087,-0.9254826,-1.0794318,-0.3512702,0.6604965,-0.8304170,-0.5503010,-0.9364167,0.3098090,-0.7446927,-0.9077413
-0.6644590,0.4019195,-1.3016285,0.3400887,-0.6035685,-0.8807951,-1.1556731,-0.3944885,0.0447733,0.1424816,-0.6094364,-1.2096977,-0.9286042,-0.5094911,0.9023461,-1.2695955,-0.6746197,-1.1339196,0.1071445,-0.8988841,-1.0646930
-0.7333468,0.1151184,-0.5543025,-0.0030116,-0.3899438,-0.9086276,-0.9415435,-0.5557296,0.0973617,-0.1129604,-0.8122177,-1.1280628,-1.1642079,-0.9975283,0.9149579,-1.3761084,-0.9585701,-0.9992980,0.1788637,-0.7446744,-0.8029395
0.0093429,0.2944224,-0.2197113,0.2477869,-0.1993337,-1.0612454,-0.6474934,-0.3795442,0.4529306,-0.3516099,-1.1650068,-1.0584706,-1.0254850,-0.4062213,1.3395255,-1.0132405,-0.9907723,-0.4079594,0.2631113,-0.5262733,-0.1964078
-0.0244269,0.4760845,-0.4228461,0.4739268,0.4242200,-0.9328526,-0.6769401,0.0262461,0.5920660,-0.2520178,-1.2346500,-1.1782292,-0.7038954,-0.0716455,1.7242365,-0.7738267,-0.9173922,-0.3874279,0.4795743,-0.3686650,0.2605045
-0.7913710,-0.0149591,-0.6048458,-0.0229251,0.6794872,-0.9627295,-0.9954368,-0.2559654,0.2377688,-0.6553327,-1.0432781,-0.8635400,-0.9454663,-0.0961485,0.8976883,-0.8841776,-0.9500117,-0.6202118,0.0835638,-0.3707465,-0.1407820
-1.0288138,-0.2031773,-0.3852628,-0.1360364,-0.1901806,-1.0995442,-1.2053642,-0.4441688,-0.2845445,-0.9700617,-0.6455877,-0.4926717,-1.0654149,-0.5051535,0.3944528,-0.9637891,-0.3979285,-0.6864580,-0.0258686,-0.2572860,-0.2316105
-1.1739694,-0.1795327,-0.8560601,-0.4515710,-0.2073925,-1.0337747,-1.4474673,-0.5291758,-0.2459185,-0.4658847,-0.4932648,-1.0377799,-0.8651224,-0.6673937,0.1612622,-0.7479274,-0.2536285,-0.4557061,0.0842535,-0.0732851,-0.3585863
-1.1046391,-0.0174092,-0.9137406,-0.4648744,-0.8494195,-1.5194269,-1.3679705,-0.7511944,-0.4265959,-0.7182540,-0.2094927,-1.0253659,-0.9057248,-0.3862296,0.2137069,-0.7466084,-0.3773319,-0.4457408,0.1492332,-0.4681318,-0.5812362
-1.2565058,-0.2892412,-1.0427724,-0.4491153,-0.7409757,-0.9707527,-1.3244528,-0.5786660,-0.4284743,-0.7111260,-0.6246709,-0.6627285,-1.2826264,-0.4287474,0.1265750,-1.1773978,-0.6208698,-0.7404648,-0.0762794,-0.7172138,-0.5380397
-1.2807598,-0.3397839,-1.0959755,-0.7907547,-0.4673738,-0.6526190,-1.1556418,-0.4895834,-0.8454434,-0.7441102,-0.5870104,-0.6351959,-0.6883733,-0.3596658,0.2791749,-1.1356871,-0.6304584,-0.5261555,-0.0987941,-0.7997105,-0.4218718
-1.2003151,0.1825480,-0.7792390,-0.6218138,-0.9089898,-0.7342541,-0.8204733,-1.0678847,-0.6305158,-0.6783332,-0.6343145,-0.6982854,-0.5674853,-0.5192156,0.4915572,-0.8862620,-0.4967914,-0.3891020,-0.0846745,-0.4485061,-0.3140104
-1.1870749,-0.2065532,-0.6392572,-0.4550359,-0.7216322,-0.9027616,-0.8216541,-1.1485016,-0.5452954,-0.6468071,-0.6283513,-0.6277707,-0.8172041,-0.2446896,-0.0191394,-0.6437607,-0.4555857,-0.6162883,0.0781377,-0.4068981,-0.1653279
-1.2161775,-0.4715191,-0.6833454,-0.3645995,-0.7840032,-1.1858467,-1.0832720,-0.8692297,-0.3520005,-0.4548577,-0.5177832,-0.2807870,-0.7886515,-0.1013677,0.0478960,-0.3686101,-0.5466688,-0.3871636,-0.0449657,-0.3285138,-0.2729450
-1.1045644,-0.1946357,-0.8355850,-0.6531705,-0.9205158,-0.7892749,-1.2895477,-0.7783526,-0.5748770,-0.6589093,-0.0814875,-0.6326219,-0.8349692,-0.4159039,0.0167652,-0.4030748,-0.2518671,-0.7035087,-0.1030135,-0.1858191,-0.2253108
-1.2102989,-0.0500987,-0.8389401,-0.5174742,-0.4932203,-0.8632348,-1.1330225,-0.9478008,-0.6949776,-0.9992657,-0.5323732,-0.6312840,-0.9208903,-0.6925324,-0.7802076,-1.0775230,-0.6046253,-0.7015591,-0.7444630,-0.4411072,-0.4014097
-1.3060572,-0.1018941,-0.5608395,-0.8990326,-1.2743273,-1.3647519,-0.8899838,-1.1480781,-1.0115248,-1.0105072,-0.6986114,-0.2135797,-0.9292031,-0.4677505,-0.7876692,-1.1906205,-0.6413122,-0.8113184,-0.8502818,-0.8385627,-0.3140495
-1.2845110,-0.5084382,-0.8788015,-0.4581431,-0.5599217,-1.3520589,-1.2235488,-1.0884057,-1.2423418,-0.7487050,-0.3653461,-0.5956073,-1.3261240,-0.6699499,-0.4006917,-1.2011632,-0.4402911,-0.6919695,-0.5471351,-0.4941827,-0.1667858
-1.0822575,-0.2533889,-1.0074627,-0.4356799,0.3334718,-1.3833444,-1.3324559,-0.8718733,-0.8815651,-0.5284387,-0.3291212,-0.5589808,-1.1000311,-0.4231134,-0.4610731,-0.9523475,-0.2753201,-0.8203383,-0.5452115,-0.3547856,-0.2158764
-0.9402111,-0.4505056,-1.0360842,-0.8514875,-0.0428451,-1.0119410,-1.2025030,-0.9719137,-0.4749958,-0.5401125,-0.5122927,-0.3582068,-1.1056914,-0.2182273,-0.1143229,-0.7540335,-0.6749111,-0.6669796,-0.6915855,-0.3186869,0.1388355
-0.8841209,0.0555661,-0.9710066,-0.4564552,0.2103891,-0.7995940,-1.3655622,-0.5608228,-0.7068120,-0.2498827,-0.6196341,-0.6167615,-0.8366193,-0.3787028,-0.0356225,-0.6085415,-0.2470408,-0.4367186,-0.3587054,-0.4093048,0.0909519
-0.9275621,-0.0716950,-0.9740185,-0.1729673,0.8505919,-0.5547299,-1.2235005,-0.4261069,-0.9366971,-0.2581540,-0.6178373,-0.8416864,-0.9806945,-0.1917287,0.4108029,-0.7425543,-0.3572519,-0.8811213,-0.6664943,-0.6311432,-0.4283268
-0.6929984,0.3317535,-0.8529786,0.1450435,0.7521166,-0.7657703,-1.1117389,-0.7636847,0.1784190,0.0921685,-0.8893054,-0.6595743,-1.1930989,-0.5562246,0.4428918,-0.8565906,-0.4176418,-0.7445018,-0.2745719,-0.6208971,-0.6077239
-0.5545836,0.0428408,-0.7439590,-0.2575023,0.4856350,-1.1159154,-1.1449388,-0.6514141,-0.0643250,0.0838924,-0.6970385,-0.4496676,-1.0093397,-0.4440424,0.5276587,-0.8746883,-0.3057995,-0.6160437,-0.2389808,-0.4471514,-0.3964972
-0.4415324,0.7503951,-0.7523283,0.0605581,0.3797528,-0.7926584,-1.1399312,-0.4144668,0.3954395,0.0355824,-0.1387092,-0.6570782,-1.2446624,-0.6433858,0.3382538,-0.7302221,-0.1669786,-0.7264322,-0.1648582,-0.3640365,-0.4881003
-0.5587338,0.9037311,-0.8525569,0.0640747,0.4234867,-0.7687749,-1.3397943,-0.3309870,0.6411782,0.1940146,-0.0934344,-0.5750144,-0.8668742,-0.7202022,0.2741347,-0.8306611,-0.5204956,-1.0796727,-0.2127830,-0.3886815,-0.8909850
-0.8056126,0.8722518,-0.7047126,0.0434644,0.6484612,-0.6461031,-1.0578011,-0.6957345,0.4485063,0.1550681,-0.4754151,-0.4669754,-0.9911387,-0.6741199,-0.0614185,-0.9213137,-0.8153884,-0.9013650,-0.2744618,-0.8353521,-0.9216274
-0.6922758,0.7651293,-0.7386721,-0.5088574,0.5276445,-0.2014464,-1.0256852,-0.8616579,-0.0838260,-0.2284454,-0.4475447,-1.1038413,-1.0443048,-0.7695302,-0.0709335,-1.0646732,-0.8270894,-0.8046894,-0.7180567,-1.1578730,-1.0475581
-0.4554684,0.5751461,-0.1369312,-0.0255953,0.3728957,-0.6005682,-1.1397932,-0.3638100,0.1905603,-0.4363578,-0.6167662,-1.0513651,-1.0472798,-0.7522672,0.2259876,-1.2915576,-1.2803909,-1.1753367,-1.0125029,-1.1378413,-1.3428984
-0.5836454,0.8023377,-0.2058091,0.1696366,-0.0311350,-0.8425766,-1.0850475,-0.0993849,-0.1651847,-0.7701375,-0.8973711,-0.6773627,-1.0667512,-0.7265583,0.0112023,-1.5645032,-1.0266516,-0.7739018,-0.8108245,-1.2075895,-1.3155688
-0.5819598,0.4975848,-0.3055338,0.2313807,0.1984283,-0.6873260,-1.0473775,-0.1665525,0.1316151,-1.1034807,-1.0742875,-0.9357287,-1.0433387,-0.5668479,0.0241309,-1.4185425,-1.3203053,-1.1070749,-0.7325515,-1.3234625,-1.4209808
-0.3963481,0.3483919,-0.5489168,-0.1227044,0.3889267,-0.7765290,-1.1311872,-0.0407642,0.1579249,-0.6047944,-1.0314430,-1.3079133,-1.1002465,-1.0728254,0.1374142,-1.1641362,-0.8255849,-1.1141212,-0.3079686,-1.1624941,-0.7334837
-0.3671254,0.1710028,0.1159586,0.0226406,0.6735911,-0.3717316,-0.9030296,-0.3227791,0.2761191,-0.0967140,-1.0548389,-0.5418270,-1.0906323,-0.6984087,0.2930688,-0.8880055,-0.5372441,-0.9664522,-0.1352089,-0.8985234,-0.6824000
-0.3647603,0.4994250,-0.0027354,0.1861006,1.1971455,-0.5793326,-0.9548307,-0.1754944,0.2899010,-0.1885684,-0.8058435,-0.2072082,-0.9298458,-0.6607533,0.5613211,-1.2049822,-0.6181560,-0.7937716,-0.0530252,-0.7834725,-0.7517157
-0.4124905,0.4242044,-0.3760536,0.1610966,0.7293930,-0.7806159,-1.1016079,-0.0810840,0.2292257,-0.3645216,-0.9116492,-1.0081058,-1.1306400,-0.9385105,0.0703866,-1.3599343,-0.7547087,-0.9873294,-0.5295662,-1.0355510,-0.9841832
-0.3700342,0.2579378,-0.6092236,-0.6020885,0.0234687,-1.0201706,-1.0249335,-0.5717824,-0.1911052,-0.3040220,-1.0972100,-0.8095974,-1.5296024,-1.1733406,-0.5587901,-1.3705266,-1.0482113,-1.3861115,-0.8460597,-1.3202096,-1.1966318
-0.6120095,-0.3911811,-0.8976931,-0.4140265,0.5129591,-1.1154244,-0.8579551,-0.8078123,-0.3945078,-0.0772211,-0.9503939,-0.3739918,-1.5850464,-1.1915667,-0.5363156,-1.4352477,-1.1229153,-1.4523171,-0.9813485,-1.1337264,-1.0717442
-0.7129485,-0.4083412,-0.5945691,-0.0682212,0.5014287,-0.9185329,-1.0538185,-0.4359720,-0.2651803,-0.9805805,-0.8628653,-0.5994439,-1.4717214,-1.1285617,-0.2076520,-1.2503408,-1.0759089,-1.2861215,-1.1054882,-1.2589343,-1.0320460
-0.9228534,0.0150723,-0.5189874,-0.3033583,-0.0164923,-0.4116679,-0.7607920,-0.1140417,-0.2443186,-1.0357205,-1.0126207,-0.8787833,-1.0035342,-1.2712125,-0.0047539,-1.4367998,-0.9203168,-1.1367394,-0.9375174,-1.5458155,-1.0672534
-0.9812095,-0.5207095,-0.1206444,-0.7506093,-0.1089323,-0.7747522,-0.6014631,-0.4608638,-0.5312553,-1.0180459,-1.0583330,-0.5451494,-0.9235125,-0.9378167,-0.3492101,-0.8084193,-0.4887497,-0.9858381,-0.9505618,-0.9156477,-0.7057510
-0.8530391,0.2716753,0.0052954,-0.6016758,0.2267731,-0.6874851,-0.7589030,-0.7541957,-0.3939986,-0.7702557,-0.9725047,-0.3731688,-1.1199665,-0.8355555,0.0903360,-0.8475314,-0.7750404,-0.9994555,-0.8165230,-0.7120063,-0.6746038
-0.8113199,0.5380986,-0.2416810,-0.4685448,0.2099710,-0.3275201,-0.8970896,-0.7431176,-0.2386753,-0.4778066,-1.0212358,-0.8078696,-1.0022517,-0.9101697,-0.3397328,-1.1332933,-1.2434961,-1.1230000,-1.1041257,-1.2107877,-1.1150581
-1.0125042,0.0144347,-0.7300314,-0.8650777,-0.5162057,-0.7255504,-1.0941323,-1.0648084,-0.7692626,-0.9086491,-1.3063347,-0.9613230,-1.0072193,-1.5129684,-1.0364795,-1.1745598,-1.0764096,-1.2317742,-1.7711091,-1.4728445,-1.0958326
-1.1967736,-0.0847906,-1.1567508,-1.2727445,-1.3403708,-0.8457155,-1.4633012,-1.2242688,-1.1496322,-1.3352795,-1.1716224,-0.7372752,-1.2461778,-1.2447363,-1.5848678,-1.5503523,-1.1537739,-1.3237358,-1.7670392,-1.6723841,-1.2126734
-1.3236057,-0.3230570,-0.9500293,-1.5033675,-0.7903938,-1.0787274,-1.4710935,-1.2228079,-1.5870374,-1.4646643,-1.2250316,-0.8184267,-1.5410638,-1.6481544,-1.7369002,-1.9372537,-1.3703772,-1.6558774,-1.9942731,-1.7175652,-1.2554513
-1.3941293,-0.3620736,-0.7395622,-1.6634383,-0.5012714,-1.0243446,-1.3890543,-1.7879903,-1.6816622,-1.7553536,-0.6770641,-1.0019687,-1.5294247,-1.2590855,-1.7268190,-1.7686630,-1.2912465,-1.1676184,-2.2270966,-1.5500053,-1.1823306
-1.2588637,-0.2607072,-0.5763763,-1.0241487,-0.5033720,-1.2080262,-1.3586650,-1.3422060,-0.9029855,-1.4240828,-0.7032219,-0.8775921,-1.2817699,-1.2036003,-1.2331831,-1.4136394,-0.9216729,-0.7532641,-1.7617096,-1.1725848,-0.5052524
-0.9309998,0.4556723,-0.5797637,-0.8007640,-0.2994708,-1.1572783,-1.5176773,-0.6430054,-0.5060949,-1.4183712,-0.3486311,-1.0318887,-1.3838027,-1.3891442,-0.6575544,-1.2813489,-1.1393031,-1.0065982,-1.3778709,-1.1467011,-0.8548412
-1.1178232,0.3671418,-0.8469067,-0.7230175,0.7285691,-1.0491946,-1.4256554,-0.5058888,-0.4788086,-1.4095584,-0.4573925,-0.8665661,-1.7660283,-1.6098125,-0.5553105,-1.3127948,-1.2364637,-1.3837683,-1.5818727,-1.4431528,-1.1660120
-1.3080293,0.4193083,-0.7892910,-0.4981386,0.2071734,-1.3595905,-1.3940387,-0.6223038,-0.6282823,-1.1329981,-0.9477931,-0.5756589,-1.6713823,-1.4114572,-0.6499633,-1.7146665,-1.4667246,-1.4701245,-1.3453904,-1.4616348,-1.3133187
-0.8762929,0.0302505,-0.9444869,-0.4210925,-1.2820470,-1.2818956,-1.2911234,-0.6025106,-0.5053021,-1.5758154,-0.8499792,-1.0918595,-1.7593194,-1.2607161,-0.5450562,-1.7148590,-1.6071979,-1.4689554,-1.1321870,-1.9208179,-1.6335309
-0.7632487,-0.0352537,-0.8718714,-0.4512726,-0.6389236,-1.1843435,-1.4303316,-0.6734503,-0.5952816,-1.1574587,-0.6549125,-1.5242598,-1.9939655,-1.8830860,-0.3276124,-1.3958035,-1.8336055,-1.7988423,-1.2280165,-1.9504386,-1.7961086
-1.1958185,0.0341592,-0.4405927,-0.3685811,-0.8725797,-1.3945339,-1.5847672,-0.9140159,-1.0985333,-1.1553789,-1.0099490,-1.2851079,-1.7284640,-1.8415776,-0.4658654,-1.8546839,-2.1667264,-2.0060365,-1.6740447,-2.1316519,-1.8594276
-0.7829589,0.4026456,-0.5029399,-0.3983732,-0.0304229,-1.3177816,-1.2463681,-0.7136756,-1.2879289,-1.3194536,-1.1100502,-1.1283393,-1.7113390,-1.9121152,-0.5652931,-1.8982605,-1.7067444,-1.6784678,-1.5505203,-2.2139974,-1.7741861
-0.8950697,0.5604005,-0.6298506,-0.3303165,-0.0706074,-0.9619258,-1.2181848,-0.6918786,-0.8967023,-1.0119089,-0.5657069,-1.2565449,-1.6041539,-1.5868878,-1.0293858,-1.9159606,-1.7246855,-1.8364153,-1.5988946,-1.9362437,-1.6865603
-0.8559966,0.5037720,-0.6440800,-0.5905707,-0.2357762,-1.3190708,-1.2532613,-0.6204010,-0.9496180,-0.7826274,-0.1859514,-1.0551517,-1.5999037,-1.4519912,-0.4909275,-1.5075581,-1.2191620,-1.4872186,-1.4467624,-1.4946247,-1.0549315
-0.9913171,0.0905393,-0.5435831,-0.3871104,-0.3478223,-1.3752023,-1.1122805,-0.7921343,-0.8754703,-0.7346533,-0.0909561,-0.3411055,-1.1426555,-1.1619087,-0.5246609,-1.0668421,-0.7181478,-1.1597406,-1.3271871,-1.1620363,-0.8445729
-0.9446016,0.2002733,-0.4387009,-0.3088781,-0.0373861,-0.9366114,-1.1620324,-0.5182639,-0.4245595,-0.9749203,0.2222628,-0.7571660,-1.0921789,-1.0255017,-0.2088793,-0.7070879,-0.4515402,-1.1726897,-0.6304641,-0.9303852,-0.5705836
-0.6466165,0.2990572,0.0884697,-0.1028496,0.5958811,-0.3972661,-1.1837405,-0.5026630,-0.4094597,-0.8286561,0.1075584,-0.7162551,-0.9785346,-0.9266898,0.2509403,-0.6163394,-0.2326505,-0.8331409,-0.6330279,-0.6232608,-0.3441300
-0.4371039,0.1256052,0.0380457,0.1074079,0.4211199,-0.4380555,-0.5696442,-0.3850583,-0.0019025,-0.6611288,-0.0121553,-0.6517305,-0.8404558,-0.9062654,0.4176024,-0.8233234,-0.9059656,-0.6966377,-0.4987722,-0.7977064,-0.3236632
-0.0560761,0.5347251,0.1854500,0.9441230,0.7859352,-0.6225795,-0.3554709,-0.0155618,0.4684407,-0.3703200,-0.5709390,-1.1748623,-1.0566186,-0.3214681,0.3926107,-1.0483835,-1.3306085,-0.7051284,-0.5907617,-1.1125745,-0.7245389
-0.0175091,0.5902723,0.6663483,0.4935309,0.9154184,-0.7126470,-0.3356196,0.0115553,0.4035819,-0.3542007,-0.3825401,-1.3214906,-1.0421935,-0.0765378,0.2496454,-1.1649040,-1.4216566,-0.6633032,-0.7188902,-1.4818347,-0.9366422
-0.4084640,0.0992799,0.0639889,0.1006164,0.6999400,-0.7787502,-0.8646173,-0.2751649,-0.1770342,-0.8136441,-0.7013423,-1.0851215,-1.3421112,-0.6559879,-0.8031014,-1.5938977,-1.7341834,-1.0171885,-1.4993793,-1.7911348,-1.4282026
-0.6884091,0.3350089,-0.4592973,-0.0637064,0.0794581,-1.2806190,-1.1456251,-0.7194263,-0.4906840,-1.1194903,-0.3901580,-1.0257339,-1.6428636,-1.4560702,-1.2826880,-1.8170176,-1.6013782,-1.6810776,-1.6980751,-2.0625863,-1.7344396
-0.5843337,0.3711889,-0.2780507,-0.2743869,0.3279709,-1.0839382,-1.0905378,-0.7137135,-0.6437091,-1.1086515,-0.1220412,-1.6283410,-1.8486172,-1.7315713,-1.2339318,-1.8347108,-1.6527368,-1.7374269,-2.0176973,-2.1337054,-1.6203375
-0.3592669,0.1019036,-0.3394912,-0.4348074,0.3914769,-1.2423980,-1.2013688,-0.7072979,-0.6021833,-0.6337334,-0.2308782,-1.4666200,-1.6060373,-1.5888141,-1.1118287,-1.7278857,-1.4370842,-1.6727060,-1.8577638,-1.6697402,-1.6794597
-0.4536240,-0.0857702,-0.5282460,-0.6711637,-0.0770014,-1.0817260,-0.9841054,-0.7545926,-0.8635656,-0.6424633,-0.7736500,-1.0882541,-1.6460969,-1.3410671,-0.7188836,-1.5014344,-1.2688712,-1.5828457,-1.6667383,-1.2531391,-1.1965536
-0.7378631,0.0100546,-0.4535807,-0.5246062,0.2739342,-0.6074462,-0.8185024,-0.7385854,-0.4145200,-0.7982100,-0.7316224,-1.5128472,-1.2524513,-0.9127340,-0.8633770,-1.2536412,-1.2995496,-1.1297133,-1.4558980,-1.3504882,-1.3287091
-0.6598135,0.2056120,-0.5259625,-0.4993726,0.5998116,-0.3963092,-0.7732915,-0.7287530,-0.5368554,-1.0544567,-0.7189083,-1.2455680,-1.0553963,-0.5924607,-0.9287785,-1.0440099,-1.7266583,-1.0929813,-1.4818972,-1.3255095,-1.2950103
-0.8596216,0.1113208,-0.4054220,-0.7078491,0.9327734,-0.6551551,-0.7703518,-1.0064119,-0.9867235,-1.3582925,-0.4381438,-0.8596408,-1.2075788,-0.6478515,-0.7114856,-1.1822793,-1.7697134,-1.2166312,-1.5906386,-1.3403367,-0.9788122
-0.9531699,0.2178531,-0.6618933,-0.7080947,0.2843621,-0.8821372,-0.8026863,-0.8203385,-1.4609480,-1.1720003,-0.3999176,-1.2727940,-1.3705882,-1.0582453,-1.3586298,-1.2724938,-1.7058144,-1.4812251,-1.5654494,-1.6574477,-1.5871186
-1.2258980,0.1629342,-0.9318320,-1.0092665,-0.1190157,-0.4502950,-1.1298279,-0.8619877,-0.9482365,-1.0888509,-0.4490809,-1.3455210,-1.6893326,-1.5963540,-1.6871997,-1.3693472,-1.9081285,-1.8182123,-2.0041444,-1.8058180,-2.1156006
-1.1599307,-0.1018268,-0.9209428,-1.5489535,-0.1498031,-0.7342775,-1.3104484,-1.1551566,-1.0579736,-1.3377396,-0.7342587,-1.1346152,-1.6154591,-1.6693293,-1.9661406,-1.5092812,-2.0925424,-2.2572632,-2.2846541,-1.6067564,-1.8246055
-1.4009503,-0.5476713,-0.4378914,-1.3564568,-0.5611520,-0.8313618,-1.0860503,-1.0824392,-1.5069078,-1.6732450,-0.7013459,-0.8522094,-1.7334843,-1.7491094,-1.7900338,-1.5798354,-1.5972216,-1.7645987,-1.7129531,-1.6262774,-1.4504440
-1.0662541,0.4415047,-0.4779381,-1.1377958,-0.9118215,-0.3551130,-0.9763190,-0.7514953,-1.0923156,-1.4470283,-0.5707326,-1.2674463,-1.4476104,-1.7949697,-1.2049850,-1.3182755,-1.1214627,-1.4595429,-1.2913185,-1.2661581,-0.7816817
-1.0526490,0.2229624,-0.2759801,-1.1359183,-0.2316803,-0.2313938,-0.9758102,-0.5453835,-0.8306018,-1.3522439,-0.6724093,-0.6258759,-1.0339648,-1.6770293,-1.1453168,-0.8182916,-0.7379797,-1.4056544,-1.3838838,-0.7281630,-0.5749660
-1.0592328,-0.6878017,-0.1326335,-1.2735503,-0.4773854,-0.2890649,-0.6855718,-0.9012329,-0.6181450,-1.0581260,-0.2534468,-0.2848088,-0.6989612,-1.1921505,-1.0631331,-0.9527278,-0.7702063,-1.0639441,-0.9618232,-0.7204895,-0.4902323
-1.1511900,-0.0847544,-0.1762816,-1.5070890,-0.7504044,-0.1561869,-0.5184222,-0.8327113,-1.1149492,-1.2091863,-0.2326196,-0.7656384,-0.5139628,-1.1263819,-1.5227388,-1.3735509,-0.7326568,-1.0584117,-1.3975717,-1.4441237,-0.7400057
-1.1847422,0.2765065,-0.1612734,-1.0750529,-0.4131183,-0.3708496,-0.4382006,-0.9583952,-1.4165143,-1.2167180,-0.1004249,-0.5900710,-0.6885168,-0.9118206,-1.1224030,-1.1053419,-0.8038554,-1.0467991,-1.3745421,-1.1873504,-0.6180971
-0.9762154,0.1443697,0.3455358,-0.9407617,-0.0869363,-0.0485140,-0.4252136,-0.9248230,-0.7314688,-1.1462796,-0.1701245,0.1284171,-0.4789925,-0.7501389,-0.7754428,-0.7756954,-0.7173913,-0.9168975,-0.8592923,-0.7496711,-0.5021412
-0.8092985,0.1954981,-0.1177364,-0.5804887,-0.0774215,-0.5188745,-0.6274546,-0.5282511,-0.3962166,-0.6902293,-0.3736074,-0.3218915,-0.6266502,-0.7373394,-0.3535283,-0.4736427,-0.7978740,-0.5798272,-0.6761742,-0.6241762,-0.3900809
-0.8761789,0.0796904,-0.4119277,-0.7506343,-0.3593609,-0.6794069,-0.6935402,-0.5725107,-0.3919206,-0.4951464,-0.2176963,-0.7545996,-1.0624070,-0.6300715,-0.0556508,-0.4942214,-0.5373107,-0.6290129,-0.2905741,-0.4911208,-0.0523496
-0.9365956,-0.0309150,-0.1446652,-0.5809726,-0.4969207,-0.6888967,-0.7437466,-0.3091492,-0.4981304,-0.3663054,0.0944378,-0.0590313,-1.0214556,-0.7476561,0.1081413,-0.5845050,-0.5950380,-0.6858430,-0.3273405,-0.1946201,0.2491114
-0.8209481,-0.5801670,-0.1710805,-0.4346806,-0.6572640,-0.5100131,-0.7476396,0.0897092,-0.5701115,-0.4429782,0.0556060,-0.4506512,-0.8631757,-0.9912492,-0.0215395,-0.6216521,-0.7318276,-0.7414436,-0.4215916,-0.4418246,0.2678954
-0.9155679,-0.0864532,-0.2989038,-0.6881107,-0.0290871,0.0552310,-0.6618251,0.2648519,-0.5731895,-0.4304226,-0.0466680,-0.9710557,-0.6609792,-0.8334464,-0.4753824,-0.7966920,-0.5946670,-0.9663324,-0.2246667,-0.6711906,-0.2547756
-1.0068290,-0.3678249,-0.0176063,-0.7454419,-0.1721550,-0.1154365,-0.8508857,0.1834482,-0.2185854,-0.3774145,0.1798767,-0.8006933,-0.6835042,-0.6594608,-0.5115620,-0.7279569,-0.8165210,-1.0682175,-0.6221609,-0.7877576,-0.7323900
-1.0211148,-0.0608220,-0.2979741,-0.5957467,-0.4805471,-0.6257048,-0.7045794,-0.2557164,-0.2178281,-0.5735070,0.0207607,-0.5835474,-1.1003662,-0.8786220,-0.6682066,-0.8070081,-0.9634539,-1.1194378,-0.5723774,-1.0082345,-1.0090168
-0.9486398,0.0968950,-0.4799136,-0.2706810,0.0773593,-0.7047067,-0.9291347,-0.1377343,-0.0805759,-0.7890345,-0.2497359,-0.5770503,-1.1136066,-0.8057885,-0.2390614,-1.0429192,-1.3184513,-1.0627346,-0.6661993,-1.1711749,-0.9795645
-0.3983462,0.5487349,-0.4263116,-0.3207399,0.1601472,-0.2989373,-0.7207492,0.0372346,0.0025840,-0.7680218,-0.4337994,-0.9216301,-0.9814962,-0.6189517,0.4462382,-1.0245903,-1.1596453,-0.7132214,-0.6303928,-1.0232661,-0.4821500
-0.3684061,0.3239304,-0.2586450,-0.3094771,0.3410286,-0.5078561,-0.4424652,0.1430317,0.4110915,-0.6450047,-0.4511585,-0.6424482,-1.0089879,-0.3212020,-0.0498404,-0.6064035,-0.3352466,-0.2075621,-0.6355556,-0.7347962,-0.0866767
-0.6503807,-0.0212353,0.0638810,-0.6360114,0.5404903,-0.5487166,-0.4779746,0.6720458,0.6423888,0.0133388,-0.1636167,-0.7224027,-0.7955742,0.0147483,-0.1478246,-0.5152776,-0.0717858,-0.1569007,-0.3124278,-0.1213664,0.1119802
-0.6519177,-0.0345987,0.0581589,-0.8260714,0.2740025,-0.0971789,-0.3191499,0.7026002,0.2274105,-0.0449991,-0.3487942,-0.1854338,-0.4322785,0.1062485,-0.2413466,-0.4919928,0.2227296,-0.0898677,-0.2562549,-0.1769267,0.2053974
-0.8908309,0.0841060,-0.0240726,-0.9840692,0.3733698,-0.2278476,-0.3412583,-0.0313999,0.2434331,-0.1328889,-0.4300377,0.2117718,-0.1609213,0.1127787,-0.4531308,-0.7109509,0.0230500,0.1070025,-0.4997957,-0.5368196,0.5978894
-0.8526621,-0.0661778,0.1705576,-0.6748915,0.0826514,-0.0623111,-0.3234889,-0.5357650,-0.0245372,-0.7682686,-0.2958965,0.2658336,-0.1830098,0.1874045,-0.5840170,-0.8117309,-0.0918681,0.1966743,-0.6474340,-0.5915591,0.6357777
-0.7780025,0.1088977,0.4513136,-0.6328788,-0.3374871,-0.1265648,-0.4148367,-0.6744087,-0.8276997,-1.2222085,0.0266179,-0.0443938,-0.4398332,0.0968010,-0.6661749,-0.5349082,-0.1522431,-0.2393761,-0.7097086,-0.5989305,0.3616237
-0.7494917,-0.4661662,0.0947982,-0.6901885,-0.3195351,-0.5943456,-0.5137012,-0.7268965,-0.2822810,-0.7338356,0.1311775,0.0192833,-0.3804583,-0.0403617,-0.4878076,-0.9052330,-0.3564757,-0.6838484,-0.5706734,-0.2392051,0.1138819
-0.5938587,-0.5410430,-0.0672875,-0.4920157,-0.0190749,-0.4715155,-0.6423514,-0.3643329,-0.2054591,-0.7489321,-0.1941798,-0.1078033,-0.7033468,-0.3110750,-0.1054275,-0.6767361,-0.5899907,-0.6300015,-0.6731026,-0.0650348,0.0592977
-0.5887741,0.0096126,-0.3979919,-0.2633950,-0.2812173,-0.8879638,-0.6872554,-0.0489618,-0.2526465,-0.9321800,-0.3112926,-0.5208664,-0.5967658,-0.2529360,-0.6026862,-0.5119484,-0.5346524,-0.6393759,-0.6820096,-0.4089640,-0.1292060
-0.7304676,-0.2468405,-0.3497124,-0.9373401,-0.0591144,-0.6249024,-0.6611372,-0.2947038,-0.2006598,-1.2637134,-0.5243559,-0.6768108,-0.8762766,-0.3004152,-0.4394417,-1.1616280,-0.8801934,-0.7745944,-0.7593763,-1.1195782,-0.6795129
-0.5934859,-0.1342432,0.0205559,-1.1771034,0.0162601,-0.9394956,-0.7562609,-0.3990990,0.0347996,-1.2412362,-0.4870852,-0.4679940,-0.8444452,-0.6782222,-0.8306501,-1.4213717,-1.0727916,-0.9678558,-1.2185552,-1.2623649,-0.9453140
-0.5500381,-0.2603343,-0.1404478,-1.4724200,-0.4259057,-1.2008988,-0.7004401,0.3295744,-0.1802933,-1.1659518,-0.2557965,-0.5038170,-1.1220382,-0.6536962,-1.1881413,-1.1666105,-1.2842466,-1.4526924,-1.3600159,-1.5284935,-1.0625319
-0.8236465,-0.4015680,-0.5418882,-1.4753025,-0.5178505,-0.9905828,-0.9158846,0.1938114,-1.0428194,-1.4974402,-0.3927955,-0.8858039,-1.4063696,-1.1628077,-1.6776466,-1.3776269,-1.2735189,-1.7075722,-1.6830554,-1.6161950,-1.4012522
-1.0141283,-0.4082994,-0.9527500,-1.1658536,-0.9000925,-0.8728572,-1.2223274,-0.4821736,-1.1988512,-1.8566501,-0.7371747,-0.9929050,-1.7381761,-1.5611076,-1.6957874,-1.7714974,-1.1352668,-1.6214495,-1.8441665,-1.6192844,-1.0376220
-1.1129043,-0.6884889,-0.6803799,-1.3665645,-0.9703048,-0.6582937,-1.1156204,-1.1920629,-0.9795197,-1.7780486,-0.7358802,-0.9756898,-1.5815605,-1.6116930,-1.5541595,-1.5328560,-0.8318257,-1.3551474,-1.6236032,-1.5414255,-1.0690650
-0.6709852,-0.0726739,0.0055411,-1.2045041,-0.4443597,-0.5782714,-0.7785324,-1.0634460,-1.1174320,-1.7822454,-0.4103107,-1.2754790,-0.9639025,-1.0285430,-1.5971482,-1.1622723,-0.8365326,-1.0692012,-1.4981180,-1.5664914,-0.6312174
-0.7820492,0.0694825,0.2439585,-1.1036564,-0.4594239,-0.9343267,-0.8650373,-0.9475179,-0.8687456,-1.5308794,-0.4054722,-1.0346162,-0.8070274,-0.4363479,-1.2405057,-1.1474985,-0.8926694,-0.7534951,-1.5483445,-1.5145620,-0.3102832
-0.7537572,0.1158203,0.0986424,-0.7098753,-0.2452074,-1.0191441,-0.9765268,-0.8037713,-0.5439242,-0.6609867,-0.5613792,-0.4546216,-1.0255008,-0.5412663,-0.8298674,-0.8541454,-0.8504795,-0.5320420,-1.0913316,-1.3403984,-0.4385777
-0.7476843,-0.0999273,-0.1895006,-0.8733135,-0.7999076,-0.6482159,-0.7778464,-0.3579352,-0.4730406,-0.8544503,-0.2127748,-0.5922607,-0.9574476,-0.6043354,-1.0412505,-0.8328050,-0.4722892,-0.5015433,-1.2676331,-0.9305620,-0.5221236
-0.8911387,-0.4074711,-0.8384883,-0.9324906,-0.5347784,-0.2368182,-0.8474337,-0.8123584,-0.7549320,-1.2479959,-0.2680169,-0.4692174,-0.9115800,-0.7945839,-1.6968285,-0.8707493,-0.6415858,-0.8656582,-1.4762679,-0.8712516,-0.8838313
-1.3897527,-0.9583472,-0.5179812,-1.1360861,-0.8886054,-0.8142461,-1.0666882,-1.2781153,-0.9227211,-0.9351541,-0.2019647,0.2269563,-0.9444449,-0.6313460,-1.8120338,-1.1491150,-0.7745489,-0.8398051,-2.0944376,-1.3723134,-0.7359255
-1.1719005,-0.7463977,0.0323498,-0.8468311,-0.8446039,-0.4271307,-0.9367334,-0.7574188,-0.9037748,-0.7239522,0.1003511,-0.2387678,-0.9238742,-1.0465310,-1.3148930,-1.0878854,-0.6391946,-0.7496989,-1.8772752,-1.2743657,-0.5482889
-0.8554571,0.0613488,0.2815930,-0.4964120,-0.1966650,-0.0505350,-0.4255900,0.1018007,-0.0871830,-0.6265637,-0.0730614,-0.8089586,-0.8906816,-0.6531563,-0.6055050,-1.1813548,-0.4956504,-0.5799763,-1.2995710,-0.5855377,-0.5361547
-0.7006648,-0.0432021,0.4128530,-0.5570076,0.0974092,-0.7495024,-0.3093292,0.1291594,0.0664498,-0.2458804,-0.6022629,-0.3186397,-0.6789292,-0.1588396,0.1043573,-0.8799713,-0.6609550,-0.3586986,-0.8112804,-0.5654333,-0.0165477
-0.5043867,0.2864204,0.2893139,0.0338127,0.0400853,-0.5382794,-0.1175177,0.2044662,0.2247434,-0.0584437,-0.2276224,-0.4109363,-0.5700845,0.2363065,0.4015929,-0.4856079,-0.6568476,-0.2623235,-0.4447962,-0.4746606,0.3024799
-0.5690290,0.2933002,0.4056994,0.0361196,-0.0938423,-0.6648845,-0.0882964,0.1389303,0.1962651,-0.0098103,0.3499212,-0.3557329,-0.4077852,0.0948989,0.4999909,-0.2074901,0.0129476,0.1828485,-0.2838299,-0.1780568,0.3555120
-0.5484161,-0.2447653,0.3316760,0.0742310,0.3806188,-0.7419843,-0.2343687,0.1666908,0.3600740,-0.1443593,0.1743925,-0.1285875,-0.1487711,0.2539752,0.5072551,0.0784323,0.2387910,0.4431103,-0.4571382,-0.1367814,0.4881517
-0.4647253,-0.6267280,0.5959741,0.0253006,-0.1674814,-0.6864817,0.1496848,0.2958110,0.4162199,0.0256539,-0.1214297,0.2816075,-0.1514624,0.6822762,0.3376281,-0.1866893,0.1965733,0.3396628,-0.5057713,-0.3453982,0.3324170
-0.3367379,-0.4446366,0.6165581,-0.1893158,-0.1891931,-0.2405318,-0.1853266,0.1320844,-0.0529108,-0.6406220,0.1158447,-0.1796591,-0.0391274,0.5541281,-0.0944230,-0.5529110,0.0846481,-0.1344763,-0.6348836,-0.3031716,0.2805863
-0.4935431,-0.5914388,-0.2355715,-0.1998377,0.4637460,-0.4609504,-0.4432971,0.1830673,-0.2379578,-0.2650480,0.2817566,-0.5029091,-0.0726142,-0.1197471,-0.3272819,-0.5643315,-0.2418609,-0.3982649,-0.8966684,-0.4766519,-0.0084357
-0.5450358,-0.7614153,-0.0612606,-0.3312446,0.1401373,-1.1711646,-0.0559710,-0.2071539,-0.0659917,-0.4998055,-0.1924298,-0.3762099,-0.3171856,0.0194541,-0.1445590,-0.8145763,-0.8723888,-0.3546001,-0.8097602,-0.6861969,-0.1789911
-0.4539375,-0.2375325,0.4220136,-0.3774521,0.3535451,-0.3467811,-0.0943999,0.2785322,-0.1351498,-0.6999004,-0.2829466,-0.4349039,-0.5243855,0.3559591,-0.1279336,-0.6989481,-0.5010024,-0.2580497,-0.6419777,-0.5851903,-0.0870445
-0.1618336,-0.2964905,0.1744473,0.0015965,0.6440793,-0.1457915,-0.3533726,0.4405539,0.2179982,-0.5429598,-0.0180015,-0.8717958,-0.1726198,0.5827836,0.4431490,-0.4751792,-0.2766235,-0.2987279,-0.1193112,-0.5135136,-0.1202607
-0.0501820,-0.8302464,0.5856801,0.0218122,0.5099968,-0.4769570,-0.3757148,0.2294654,-0.0437871,-0.0819803,-0.0632401,-0.4109529,0.0966008,0.4302747,0.1190433,-0.5964029,-0.5484396,-0.3924381,0.0682450,-0.1631132,-0.1162675
-0.3461883,-0.6563343,0.1333545,-0.0235528,-0.4108727,-0.9665604,-0.2771491,-0.0391123,-0.0027736,0.0529646,0.2787355,-0.1725206,-0.1444529,0.3117341,0.2224071,-0.2954528,-0.2012838,-0.0541326,-0.1014116,-0.1173148,0.4100152
-0.3828731,-0.3471963,-0.0702498,-0.2560777,-0.1862454,-0.3670028,0.0911467,0.0376177,0.0216228,-0.0585849,0.1841164,-0.7081562,0.1148500,0.5934651,0.2954953,-0.6028975,-0.0396466,0.1199005,-0.0944789,-0.4296429,-0.1025405
-0.2733869,-0.0643681,0.4018365,-0.2827463,-0.7158221,-0.3846280,-0.2170233,-0.0970940,0.2305286,-0.6102766,0.0060464,-0.5964327,0.0209542,0.5973859,-0.1100225,-0.7210907,-0.3961222,-0.3525438,-0.3922407,-0.4398884,-0.3194730
-0.2952276,-0.2503718,0.1636130,-0.3336294,-0.2911043,-0.4818002,-0.5305326,-0.3353819,-0.3228510,-0.6151136,-0.1849749,-0.3377809,-0.2997444,0.2965035,-0.4461050,-0.5019029,-0.3734510,-0.5186813,-0.7793719,-0.5226557,-0.4851705
-0.2547849,-0.2346915,-0.0156162,-0.2712978,-0.2493559,-0.6371545,-0.4265681,-0.1320520,-0.4365765,-0.3070817,-0.0160667,-0.6694255,-0.5687320,0.1183817,-0.3043332,-0.4016904,-0.3293442,-0.2369586,-0.7097262,-0.6431952,-0.4066674
-0.5133204,-0.0778635,0.1872564,-0.4426483,0.0523953,-0.4410742,-0.3990666,-0.2409517,-0.2055718,-0.6609041,0.1186669,-0.6576642,-0.5743016,0.3096094,-0.6580798,-0.6677002,-0.4318701,-0.6194102,-0.9111825,-0.9910760,-0.7860285
-0.6022823,0.3003395,0.3008103,-0.6653742,-0.1559304,-0.6172743,-0.5204105,-0.3043687,-0.5595383,-0.7122903,-0.2788616,-0.3141659,-0.5829641,-0.0412664,-0.8626322,-1.0757284,-0.9208531,-0.4237453,-1.2937044,-1.2897749,-0.6686807
-0.5219178,0.3082770,0.2242336,-0.6039682,-0.9095489,-0.7703644,-0.1238937,0.3431855,-0.4900475,-1.3162886,-0.2254230,-0.5466079,-0.4928930,-0.2778043,-0.7799471,-0.9444287,-0.4876269,-0.4655270,-1.2766327,-1.2560933,-0.4797666
-0.6530403,0.1150508,0.3138884,-0.8233940,-0.6520364,-0.3122861,-0.3133061,-0.0783373,-0.3046288,-1.2203625,0.0012330,-0.8809264,-0.2448276,0.2187514,-0.6428891,-0.8427703,-0.2497849,-0.4217241,-1.2287858,-0.8394991,-0.5880948
-0.5640175,0.1516084,0.5198703,-0.8889749,-1.1709194,-0.4517789,-0.3172032,-0.4479004,-0.7339385,-1.0029811,-0.5441822,-0.3448711,-0.1218436,0.2955177,-1.2251024,-1.5286522,-0.7822775,-0.3874613,-1.2294939,-1.0388927,-0.7036545
-0.5336375,-0.3676054,0.2899066,-0.8278432,-0.7525921,-0.6404729,-0.1583299,-0.6274641,-1.1783620,-1.9106236,-0.9726954,-0.6978917,-0.7291186,0.1157406,-1.3951968,-1.6387964,-1.3707691,-0.6318682,-1.4504073,-1.4819013,-1.0693964
-0.4675813,0.1755925,0.6111776,-1.2208616,-0.5126376,-0.0526961,-0.5215642,-0.5426795,-1.0859329,-2.1318507,-1.0377796,-1.6246889,-0.7791693,0.0725999,-1.1170052,-1.4360312,-1.6530735,-0.9105164,-1.5238812,-1.8064359,-1.1908201
-0.6281019,-0.1086244,0.1334843,-1.4169154,-0.6729341,-0.3878116,-0.8819203,-0.4217595,-0.9491394,-1.7087058,-1.5423919,-1.5569234,-1.2048585,-0.3472080,-1.2998598,-1.5755326,-1.8310262,-1.1343418,-1.6618881,-1.6332525,-1.5556753
-0.5323234,-0.2110269,-0.2117427,-1.0834459,-0.5837319,-0.9444714,-0.8704963,-0.4571296,-1.1420071,-1.8729450,-1.4458590,-1.6225904,-1.4186777,-0.5115065,-1.3629962,-1.4670569,-1.4943550,-1.1113566,-1.5701621,-1.7392715,-1.2104470
-0.2537616,0.2192695,-0.1150716,-1.1077229,-0.6517094,-1.1283638,-0.7055909,-0.3864098,-1.3594905,-1.5464588,-0.5682210,-1.5659302,-1.0318750,-0.6282017,-0.7755239,-0.9835970,-0.8040242,-0.8751761,-0.8307484,-0.6987246,-0.4909221
-0.5635420,0.1386513,-0.0832499,-1.0713048,-0.0806874,-0.3187787,-0.4721146,-0.3449008,-1.2526928,-0.9381316,-0.0491222,-0.8754715,-0.7769364,-0.2867510,-0.5717706,-0.7412748,-0.3801878,-0.5150194,-0.3037739,-0.0038990,-0.0316239
-0.8273722,-0.5798728,-0.0472479,-1.2625521,-0.8328194,-0.4800893,-0.5384023,-0.2494869,-0.8740394,-1.0932376,-0.1084478,-0.4450000,-0.5593606,0.1243537,-1.0346431,-0.5792066,-0.5915018,-0.2852841,-0.5621547,-0.3519431,-0.0740871
-0.8787116,-0.4051622,0.0347243,-1.2508104,-1.6354516,-0.3467573,-0.4913206,-0.2500097,-0.7940705,-1.2278850,-0.5032732,-0.6480168,-0.2778312,-0.1415980,-0.7343246,-0.8699957,-0.1219679,-0.2918544,-0.5716051,-0.5910160,0.0012304
-0.8105554,-0.0080206,0.1648940,-1.0810667,-0.2911928,0.3021206,-0.2579708,-0.2493086,-0.6596130,-1.4169858,-0.7885872,-1.2839733,-0.0587616,0.0475187,-1.0323466,-0.8752534,0.2052555,-0.1417622,-0.4846659,-0.5485407,0.4641152
-0.7965788,-0.1472834,0.5926816,-1.1594080,-0.2217008,0.0644868,-0.0265550,-0.6824594,-0.3678596,-1.1564033,-0.6059332,-0.3727097,0.1030988,0.4479067,-0.5408375,-0.7677788,-0.2683832,-0.0411551,-0.3172722,-0.3267602,0.1823960
-0.7724755,0.1585900,1.0178882,-0.8187538,-0.4164670,0.1256544,0.0123828,0.1057961,-0.3656493,-0.7544500,-0.3152446,-0.0455139,0.2736235,0.7952798,-0.0274822,-0.2776729,0.0032470,0.5314708,0.2211684,0.0953488,0.5683883
-0.6891842,0.5197540,0.7612166,-0.7039158,0.5559567,-0.0598579,0.0539788,0.7148659,-0.2879775,-0.4504459,-0.0146851,-0.4900139,0.4061291,0.9628668,0.1457552,0.0268684,0.0227609,0.6209636,0.5663787,0.5573047,0.5326502
-0.4049216,0.2213929,0.3358534,-0.5557663,0.4207509,-0.0143404,-0.0736702,0.2724075,0.1183136,-0.6408078,0.1880978,-0.3139337,0.4342213,0.7848566,0.0152907,-0.1834590,-0.0487929,0.2772360,0.7477970,0.4845341,0.3000980
-0.2638327,0.0396819,0.5897775,-0.6338071,0.1666526,-0.1329565,0.2181111,0.1225116,-0.3524685,-0.7480375,0.1014847,0.2769431,0.5365552,1.1565956,0.1040400,-0.2421928,0.0111050,0.3802367,0.3688981,0.5504473,0.6946824
-0.3580095,0.3812696,0.5918023,-0.6010141,-0.0718562,-0.2235323,0.3634879,0.0663831,-0.6900358,-0.1294580,0.4577095,-0.2293896,0.1989350,0.5506495,0.1551746,-0.2935486,-0.0243279,0.2873104,0.4879377,0.1783027,0.2096382
-0.0898591,0.1035163,0.5004791,-0.1808961,0.7274759,0.2646348,0.1525570,0.2662145,-0.5283985,-0.4227677,0.4596613,-0.0533682,0.3233600,0.3119358,0.0350502,-0.5135586,0.1960295,0.1664190,-0.1720906,-0.0663435,-0.3291746
-0.0357746,-0.0180831,0.5616465,-0.1781657,0.2313125,0.0276070,-0.0486701,0.1343049,-0.1008783,-0.5690650,0.2555572,0.6166964,0.2259034,0.6264352,-0.0695123,-0.6974737,-0.0710494,-0.2099732,-0.3056068,-0.1700747,-0.4591002
-0.0638585,0.1901550,1.0046049,-0.0014981,-0.5420257,0.2380524,0.1950130,0.3368457,-0.2587887,-0.4260988,0.3157924,0.2783245,0.2236965,0.3313223,0.0512976,-0.4135327,-0.1330096,0.0161630,-0.3414023,-0.1735550,-0.0317030
-0.0441384,0.3013411,0.9091696,-0.1620163,0.5539747,0.6425887,0.1645133,0.5435917,-0.2983202,-0.1712744,0.5676165,-0.2202913,0.1656726,0.2761188,-0.2252088,-0.5526021,-0.2494973,-0.0927755,-0.5327892,-0.0204305,-0.0784202
-0.2452102,0.1181300,1.3107289,-0.0328872,1.1752045,0.7951701,-0.0323585,0.4775575,0.0313675,0.2469342,0.2514319,0.2304028,0.0196622,0.4873669,-0.5291449,-0.3849877,-0.3602756,-0.2350296,-0.8397815,-0.2006537,-0.0441155
-0.2030412,0.2030406,0.8462204,-0.2547825,1.1225061,0.9063482,0.2183934,0.7064705,0.2179401,-0.3449045,0.4063258,0.3616601,-0.1660196,0.7002467,-0.4149024,-0.3703145,-0.1778076,-0.1372699,-0.4972244,-0.1079021,0.1808768
-0.4568049,0.2579426,0.9468638,-0.3878991,1.1417155,0.6945805,0.0961124,0.4840510,0.2013820,-0.0946164,0.6438043,0.0573306,0.1440697,0.5031359,-0.7170457,-0.3487122,0.1848518,-0.1887863,-0.1969486,-0.0384389,-0.1992125
-0.4930723,0.0328708,1.0708209,-0.7151429,0.5182557,0.7147314,-0.1416457,0.1238407,-0.2860388,-0.0570599,0.4495560,0.2251518,0.2667305,-0.1827752,-1.0960439,-0.4515118,-0.4230646,-0.2127706,-0.8577973,-0.1359151,-0.1497283
-0.5733715,-0.0896778,0.6658365,-0.8332894,0.3310198,0.4358861,-0.1794119,-0.0953029,-0.7571217,-0.4885262,0.1924298,0.2273276,-0.0359425,0.0224819,-1.3038379,-0.6048329,-0.4372332,0.1251869,-0.5705286,0.0307179,0.0570814
-0.5937198,-0.1753384,0.3291372,-0.7149037,0.2653476,0.4193619,-0.3306607,-0.1375121,-0.5490742,-0.6474996,0.1383002,-0.3833945,0.1204902,0.3316387,-0.5651794,-0.4024183,-0.5829577,0.0982168,-0.2564575,-0.2550059,0.0176856
-0.5670583,0.1493134,0.4370384,-0.5407294,1.0280235,0.5481671,-0.5017966,-0.0204999,-0.5185211,-1.0124322,-0.1498654,-0.5832008,-0.0447529,0.1836544,-1.0850791,-0.4955375,-0.9340373,-0.3045714,-0.3519341,-0.4842002,-0.0131105
-0.6885766,-0.2128124,0.3566832,-0.7460499,0.4566074,0.0983603,-0.5252265,-0.4376203,-1.0874277,-0.9924768,-0.2593936,-0.2398269,-0.3731095,-0.1912584,-1.1002412,-0.7614194,-1.2222134,-0.4328863,-0.4499155,-0.4462385,-0.1753134
-0.7906664,-0.2780411,-0.0239498,-1.0196390,0.2541043,-0.3915452,-0.7131754,-0.6129606,-1.0312608,-0.9771106,-0.1441749,-0.8972689,-0.5433144,-0.4659429,-0.8257039,-0.7032039,-1.1691877,-0.4358519,-0.3264142,-0.5969962,-0.3296349
-0.6792542,0.3848192,-0.0185659,-0.9540074,0.4337947,-0.2782875,-0.8673152,-0.3540584,-0.8239110,-1.2496018,-0.2207962,-1.2301786,-0.6626304,-0.4399146,-0.7640034,-0.7709599,-1.2750627,-0.5149236,-0.5094640,-0.3752074,-0.6209278
-0.4678246,0.1237174,-0.2007122,-0.7258464,0.1713121,0.1361190,-0.8274442,-0.4585110,-0.8900841,-1.1165901,-0.5232386,-0.7934338,-0.5939946,-0.5751774,-0.6339770,-0.8643954,-1.2746962,-0.6234524,-0.6459886,-0.6015081,-0.6622130
-0.1927657,0.4648040,0.3021931,-0.3868635,-0.0045155,-0.2507230,-0.7494656,-0.1860689,-0.7455915,-1.3358512,-0.7928180,-0.7367726,-0.7915257,-0.4211403,-0.1232523,-1.0727065,-1.2679636,-0.4994258,-0.5495843,-0.5753139,-0.4366075
-0.1829918,1.0062622,0.7156785,-0.2180943,0.5085398,0.2127052,-0.3493826,0.3816466,-0.3851888,-1.1653380,-0.8732594,-1.2303461,-0.5976892,-0.0566267,-0.2804601,-0.9145097,-0.6954845,-0.1165793,-0.3298190,-0.5949869,-0.3483121
-0.1864438,1.1060872,0.8226459,-0.2676261,0.7376989,0.5109872,-0.3478881,0.4174546,-0.2219883,-1.0220921,-0.5148609,-1.1448090,-0.3913700,0.0602024,-0.8366545,-0.8683817,-0.8122321,0.0168772,-0.4305893,-0.5058802,-0.4759725
-0.4328527,0.6494173,0.6584990,-0.6311959,-0.2140472,0.3311970,-0.7149224,-0.1864931,-1.0332885,-1.6880714,-0.6492161,-0.5173426,-0.6134295,-0.2544363,-1.5099398,-1.3762584,-1.4663696,-0.3026867,-1.4312418,-0.9453893,-0.7870362
-0.7607964,0.7222468,1.0670656,-0.7294280,0.3128601,0.2096628,-0.6806267,-0.3435375,-1.2393581,-1.5662007,-0.7670146,-1.1591926,-1.0942327,-0.7151693,-1.4203885,-1.3096727,-1.6034048,-0.4969481,-1.3699290,-1.2364680,-0.9724235
-0.7883063,0.9258033,1.0660515,-0.8219579,0.2065522,0.2891673,-0.4035317,-0.2983232,-1.2019341,-1.1679077,-0.5260493,-1.1599128,-0.6643364,-0.7501912,-1.4479612,-1.3988062,-1.5730654,-0.7303674,-1.1750230,-1.1464362,-0.9168170
-0.6523776,0.7373978,0.6149749,-0.5320019,-0.1835098,0.1392605,-0.5440719,-0.2700111,-0.6884503,-1.4822191,-0.5040476,-0.5869811,-0.8653471,-0.6692039,-1.4868441,-1.3935440,-1.2739694,-0.4119348,-1.0802042,-0.8562300,-0.5368039
-0.3905199,0.9332086,1.0697914,-0.7107692,-0.0769600,0.0055159,-0.3751043,-0.2133466,-0.7269544,-1.3691820,-0.9875019,-0.8712096,-0.4420978,-0.5138867,-1.3589169,-1.2220308,-1.0772902,-0.3723173,-0.9454545,-0.9493921,-0.3039824
-0.0442252,1.2841673,1.1776863,-0.3869653,0.1928721,-0.1812016,-0.2635834,0.0679671,-0.7318456,-1.6949142,-0.8781206,-1.0934122,-0.1827838,-0.1913076,-0.8611180,-1.1950274,-1.1824204,-0.3334917,-0.7634947,-0.8143530,-0.5995708
0.2447646,1.1425712,1.2970054,-0.1041660,0.8979458,0.1276200,-0.3679589,0.2866500,0.0466757,-0.5488868,-0.7019665,-0.7024013,-0.3942851,-0.1466950,-0.4518946,-0.8282582,-0.8983218,-0.0973191,-0.5311628,-0.5854774,-0.5967577
0.1443073,1.0110728,1.0723161,-0.1429130,1.1294141,-0.1955726,-0.5312917,0.3147837,0.1071139,0.0863020,-0.8314566,-0.9001705,-0.4936783,-0.2750262,-0.1384925,-0.6921030,-0.5069199,-0.2883629,-0.4570127,-0.6387023,-0.1927115
0.0363179,1.5296354,0.9951065,-0.1391666,0.6030168,-0.0708031,-0.5559304,0.3107656,-0.0177141,-0.2560982,-0.7670217,-0.8955302,-0.4685311,-0.3834490,0.1643474,-0.6459996,-0.2493792,-0.5433601,-0.0438313,-0.3092105,-0.2443186
0.4494230,1.9622612,1.1450690,0.0067303,0.8108976,0.3688028,-0.2476095,0.5111631,0.2377238,-0.2528192,-0.6590974,-0.6875316,-0.1801707,-0.3475647,-0.0647462,-0.4535888,-0.4480768,-0.2330475,-0.1818283,-0.2600091,-0.0631790
0.6979712,1.4698797,1.6331633,0.0017233,0.8775842,0.4560507,-0.1523663,0.3481969,0.1806462,-0.5964459,-0.5599099,-0.1858171,-0.2145609,0.0871135,-0.0268003,-0.2365853,-0.7683551,-0.1337506,-0.1408684,0.0405132,0.1114310
0.9809374,2.2679904,2.1025100,0.2076919,1.6659383,0.7314075,-0.1196321,0.4606991,0.2766135,-0.1196147,-0.4549910,-0.3318109,-0.0379722,0.0733584,-0.0530932,-0.4081455,-0.5022197,-0.1493423,-0.1367777,0.1886676,0.2013463
1.6857071,2.7179537,2.5566134,0.5397348,2.1876581,1.0317580,0.3165089,0.6657596,0.5571684,-0.3284434,-0.2769149,-0.6556402,0.0488419,0.2155325,-0.2750034,-0.3960222,-0.8146421,-0.0018791,-0.3808754,0.1020446,0.1086562
1.3889952,2.5498765,2.0826926,0.6243151,1.7019378,0.2122188,0.2795208,0.7348145,0.8084437,-0.5037824,-0.4282470,-0.6923294,0.2385495,0.2987587,-0.4628540,-0.4024176,-0.3802934,-0.3206866,-0.1560538,-0.2722470,0.0251799
1.5027727,2.8569221,2.5838366,0.5864832,1.8561083,-0.0964165,0.2277033,0.5997970,0.3571705,-0.0116988,-0.6579882,-0.8720233,-0.0152747,-0.0162555,-0.1574711,-0.6664100,-0.1846452,-0.2363415,-0.2431607,-0.7588818,-0.1503126
1.8572290,3.1998107,3.1394370,0.9867128,1.7900798,0.1298152,0.0944241,0.7210110,0.4467884,-0.4143015,-0.4641770,-0.8676610,-0.1017730,0.4439348,-0.2553214,-0.8149877,-0.5701428,-0.2625985,-0.5014493,-0.8328487,-0.5036831
1.6549031,2.5683522,2.5109370,0.5969664,2.0349910,-0.2238052,-0.2450099,0.3857298,0.1949250,-0.8928092,-0.4739476,-0.4783218,-0.3031934,0.0172481,-1.1137340,-0.9933591,-0.9334756,-1.0816791,-1.1773893,-1.1239470,-0.5857943
1.3847705,2.1246080,2.1157796,0.1923523,1.6590116,-0.2443574,-0.3427713,-0.1482858,-0.4669819,-1.0460407,-0.4361612,-0.3316619,-0.4044872,-0.2476629,-1.4071455,-1.1233190,-0.8357499,-0.8222759,-1.3500407,-1.3964889,-0.7611275
1.6723192,2.6713526,1.9800543,0.5388582,1.6880057,-0.1279341,-0.1020216,-0.0186047,-0.3418112,-0.6395678,-0.3852580,-0.9063056,-0.4021715,-0.2353756,-1.3641833,-0.9900315,-0.8045395,-0.9343523,-1.4208862,-1.6104308,-1.1565994
2.0451066,2.9733071,2.2384679,0.5092142,2.1708541,0.0593729,-0.1964121,0.2830269,-0.0738248,-0.4554961,-0.3447841,-0.9470558,-0.6190020,-0.2954725,-1.3488545,-1.3170688,-1.4188375,-1.1627825,-1.5552100,-1.6797807,-1.4609834
2.2286007,2.5215003,2.2122557,0.5941421,1.4107201,0.0025255,-0.3570703,0.0714284,-0.0889468,-1.0612240,-0.5034996,-0.9920678,-0.8960373,-0.7997442,-1.5793103,-1.4629574,-1.8326977,-1.5663044,-1.5752072,-1.9197927,-1.9281651
2.6663508,3.0359130,2.8812897,1.0143774,1.9703001,-0.0047284,-0.3074585,0.0460709,-0.1339546,-0.7313049,-0.7548622,-1.6399571,-0.7805635,-0.8523978,-1.3303752,-1.7472202,-2.0712514,-1.7286474,-1.8773690,-1.9765309,-2.3053303
2.8316078,3.8967834,3.2377510,0.9427038,1.7586368,0.0376898,-0.5526818,0.1888305,0.4118523,-0.9320525,-1.0494952,-1.5736691,-0.8805251,-0.8229553,-1.6190699,-1.7289792,-2.3389938,-1.7660092,-2.0245678,-1.9979783,-2.1817884
2.8367202,3.9017620,2.9900424,0.4761929,1.8549757,0.2502604,-0.6177036,0.1725724,0.0888249,-0.7088864,-1.1339854,-1.0536238,-1.1334797,-1.1805438,-1.9634410,-1.4188802,-2.1470945,-1.6478925,-1.7648805,-1.8899794,-1.9796290
2.8496120,3.8360434,3.2874784,0.5384528,1.8211591,-0.0295871,-0.6416540,0.0241227,-0.3435857,-0.6403067,-1.1032125,-1.5356058,-1.1781001,-1.4634237,-1.9479239,-1.4394819,-2.0301237,-1.5834198,-1.5044261,-1.7993152,-1.8343755
2.6417265,3.9135933,2.9102919,0.3359171,1.7102115,0.1272514,-1.0003351,-0.1418069,-0.2244026,-0.6216249,-1.0497581,-1.8939571,-1.1334007,-1.7298183,-2.5005221,-1.9233886,-2.4233508,-2.1914914,-1.8669546,-1.8804399,-2.2546184
2.9136107,4.1464744,2.5331554,0.1352594,2.3424485,-0.1261410,-1.1062659,-0.1990163,-0.2095706,-0.7968923,-1.1650980,-1.5212775,-1.6862478,-1.9437819,-2.4556580,-1.6512460,-2.6032443,-2.1742666,-1.9012431,-2.0678067,-2.2509277
2.6896324,3.7809532,2.2907975,0.3583326,1.6657063,0.1499786,-1.0568976,-0.0724489,-0.4369414,-1.6302615,-1.1773003,-1.4414805,-1.9364501,-1.9367135,-1.8660973,-1.6021235,-2.1681187,-1.7716041,-1.3785514,-1.8584623,-1.7486664
2.8659577,4.0374784,2.4210300,0.7818026,1.4435596,0.3765451,-1.1393180,0.1656659,-0.5094606,-1.3651035,-1.0015745,-1.6260916,-1.3988736,-1.7972569,-2.3566093,-1.5046209,-1.9453324,-2.3102882,-1.5097681,-1.7348180,-2.1645465
3.1972358,4.1599779,2.6245022,0.8961129,1.6047093,0.3473032,-1.1544436,0.1874634,-0.4260975,-1.5062973,-1.4369982,-1.5981818,-1.4974914,-1.9937322,-2.5592074,-1.9282854,-2.3262477,-2.6642323,-2.0971315,-2.1811755,-2.2393425
3.0416877,4.1325960,2.5949161,0.3660831,0.9950423,0.2034496,-1.2605305,-0.3343351,-1.1102103,-1.8931304,-1.6678292,-1.5798694,-1.6750548,-2.1247902,-2.9894600,-2.3098290,-2.4736865,-2.6985691,-2.8719559,-2.4975519,-2.7660270
2.6786215,4.5932431,2.7648771,-0.1042889,0.6593024,0.0338286,-1.2984072,-0.8049598,-1.5540034,-3.1088748,-1.4320726,-1.9668846,-1.8389304,-2.3931971,-3.8616977,-2.5368476,-2.8602161,-2.7089136,-3.2408476,-2.9443560,-3.0455351
