F3,Fz,F4,Fc5,Fc1,Fc2,Fc6,T3,C3,C1,Cz,C2,C4,T4,Cp5,Cp1,Cp2,Cp6,P3,Pz,P4
0.5178043,0.2529404,-0.4693766,0.7061391,0.8563310,0.6016791,0.5592812,0.8279332,0.5272982,1.1342598,0.8762379,0.8132049,0.5244853,0.6927804,0.6600631,0.8978810,0.9667731,0.3871575,0.7577214,0.8326868,0.2353408
0.5207440,0.4635624,-0.2153211,0.8277559,1.2425898,1.3378378,1.2004465,1.3272189,0.6008080,1.1982696,1.6160740,1.0846697,1.0391331,1.1222522,0.9658593,1.4608470,1.5564270,0.8321521,1.3200063,1.7416415,0.7579846
0.7270896,0.4126877,0.0374027,0.8700646,1.4614010,1.9261900,1.3143522,1.2505227,0.7595528,1.3116643,1.7668839,1.2231158,1.1635337,1.2540181,1.2239887,1.7175504,1.8555453,1.0587060,1.4426730,2.2610285,1.1218551
0.7167175,0.5207524,0.1767187,1.0212426,1.4105867,1.7152051,1.2303437,1.1226619,0.8050182,1.8215693,1.5640581,2.3139212,1.3923980,1.6512308,1.0828102,1.6906090,2.0716553,1.3070713,1.3675481,2.1610501,1.3064402
0.7243555,0.6559447,-0.0202510,1.1128129,1.2199725,1.4457486,1.2831856,1.2538149,0.8814391,1.9991058,1.3694204,2.0163658,1.4312350,1.8816804,1.0443234,1.7006824,1.7997891,1.2360168,1.3198258,2.2122309,1.5358173
0.8486024,0.7980878,-0.0269427,1.1268663,1.7834302,1.3393558,1.2124311,1.3647567,0.9304988,1.7676803,1.5275861,1.2626990,1.4005443,1.8506376,1.0788074,1.5159677,1.7204163,1.2614349,1.1489060,2.0675247,1.1684231
0.7622551,0.4538582,-0.1246511,1.0694035,1.5843449,1.4261180,0.9736290,1.2172947,0.8039244,1.2804453,1.2540540,0.8774182,0.9480423,1.4854189,0.6589097,1.0246776,0.7367230,0.5189638,0.9886895,1.5640017,0.4238659
0.7525264,0.5121820,-0.5219995,0.7219279,0.9259102,0.9949946,0.7163724,0.9843017,0.5687755,1.0649062,0.9681177,0.7472759,0.3456645,0.9497917,0.3763500,0.6784838,0.0131946,0.1239303,0.7712444,0.8726368,-0.0581771
0.7555027,0.7377391,-0.3373312,0.8623884,1.1441766,0.9454201,0.6856005,0.8859050,0.1229672,0.8691593,0.7689122,-0.2847230,0.2073023,0.5377702,0.1514788,0.4079363,-0.3788317,-0.0140167,0.3867074,0.3706352,-0.3385461
0.6269549,0.6101084,-0.3200501,0.8739392,1.4270527,1.3327795,0.7127572,0.7071015,0.1876455,0.9837991,0.5708328,-0.1876316,0.3917477,0.4004635,0.2800072,0.7316914,0.0850932,-0.1630345,0.2062597,0.2282794,-0.2950087
0.7056173,0.2740829,-0.2713123,0.6623306,1.4505868,1.3291588,0.7170987,0.5069325,-0.0155647,1.0628284,0.7111910,0.7640849,0.6510108,0.6924413,0.0588845,0.8373198,0.5900872,-0.1684235,0.3445757,0.5777244,0.1831218
0.4094616,0.0125489,-0.2030744,0.7665645,1.3466729,0.7579452,0.8860596,0.7515629,-0.0821866,1.4550309,1.1951212,0.9135268,0.8045375,0.7736880,0.4940120,0.7492197,0.8774800,0.2332617,0.7215413,0.9265665,0.5024752
0.3527984,0.3956197,-0.3117063,0.7764814,1.0760489,1.1301724,0.8578466,0.9221440,0.2860760,1.0821587,1.2694482,0.9659604,1.0986310,1.0095141,0.5651144,1.1050651,1.2602301,0.2402710,0.7219836,1.2631022,0.5268086
0.2998640,0.1709199,-0.5789545,0.6179085,1.0964220,1.1269389,0.7241625,0.4699161,-0.1175926,1.1372226,1.4669038,1.8082385,0.7563384,1.0179967,-0.0880161,0.4529300,0.8444430,-0.0989885,0.4103031,0.6834226,0.0775510
0.2329813,-0.2194968,-0.7896465,0.2803246,0.4765326,0.3967314,0.2867815,-0.0303294,-0.4118859,0.3743614,1.2158676,1.4039441,0.1377211,0.4619769,-0.6388376,-0.6939585,-0.0363351,-0.4625323,-0.2738800,-0.1115378,-0.4636758
0.0013131,-0.3283986,-0.9723420,0.1700338,0.4630654,0.2780413,-0.1037258,-0.2958514,-0.9158753,0.0317454,1.1372002,0.1829567,-0.3763552,-0.2549897,-0.8739489,-0.8004324,-0.4766195,-0.8391048,-0.5289946,-0.2907493,-0.8566651
0.2588452,-0.0904631,-1.0327802,0.1694395,0.7883533,0.2795234,-0.2189847,-0.4426174,-0.8306806,0.3367223,0.9485668,0.1168346,-0.4527535,-0.2373986,-1.0037123,-0.9901660,-0.8573900,-0.9111738,-0.8805003,-0.7254824,-1.3114665
0.2408913,-0.1881931,-0.8584064,0.1266351,0.8338609,0.2704434,-0.1311644,-0.3307776,-0.9107109,0.4942165,0.9630927,0.4137190,-0.4741346,-0.1865767,-0.9470623,-0.7662061,-1.0760543,-0.8966314,-0.8886889,-0.9413232,-1.5284871
0.2117001,0.0398183,-0.9907960,0.1510676,0.4428205,0.4974146,-0.1102114,-0.1060252,-0.8465593,0.6085597,1.1852919,-0.2766016,-0.6267640,-0.3498479,-0.7767393,-0.3554814,-0.5862592,-1.0272315,-0.5952058,-0.3340433,-1.1604674
0.1237571,0.0564610,-0.8757742,0.2475267,0.5208620,0.5618651,-0.1335060,0.0077033,-0.7252735,0.7232981,1.2809407,0.1320333,-0.4128315,-0.6061148,-0.5221604,-0.2547974,-0.2175034,-0.9698987,-0.2445175,-0.0860545,-0.8739313
0.0190991,-0.1942681,-0.9280985,0.2115183,0.3723702,-0.0859492,-0.2735954,-0.1082728,-0.4799652,0.9294184,1.1602831,0.9105274,-0.5768928,-0.6601496,-0.4913520,0.0779477,-0.3908321,-1.0015656,-0.0955945,0.1767836,-0.8641623
-0.1226466,-0.3448112,-1.0705619,0.1964153,0.1750047,0.2760348,-0.1968278,-0.0666494,-0.3203693,0.7962469,0.7964190,0.2737302,-0.8656257,-0.5409254,-0.2869416,-0.0926495,-0.3235845,-0.9661459,0.0286010,0.0763303,-1.1188183
0.1673226,0.3399456,-1.0876038,0.4012431,0.2462658,0.3243919,-0.2311620,0.2528166,-0.3124057,0.5812599,0.7022147,-0.3424191,-0.6893638,-0.6749967,-0.1377004,-0.3337601,-0.6206902,-0.9857222,-0.2197628,-0.2807529,-1.2602040
0.1828745,-0.0383972,-0.7395191,0.0904743,0.4816941,0.4089318,-0.2532737,0.0511196,-0.5809495,0.1991791,0.6004854,0.0826065,-0.5897874,-0.4778555,-0.5086012,-0.1376322,-0.5223634,-0.9282148,-0.2253362,-0.1857134,-1.2317992
0.0076559,-0.1065630,-0.8858026,0.1032302,0.5468406,0.7233543,-0.2997612,-0.0283939,-0.7412697,0.3929537,0.6677583,-0.2662277,-0.6576197,-0.5823775,-0.5173075,-0.0743911,-0.3781945,-0.9787682,-0.1240344,-0.1182521,-1.0443321
0.0952373,-0.2202662,-0.9381157,-0.0534485,0.3497605,0.5420971,-0.1817771,0.1439205,-0.4131721,0.1452996,0.9361266,-0.8152271,-0.4335549,-0.6181787,-0.4462671,-0.2862637,0.1350338,-0.7808512,0.1134390,0.2256332,-0.7629160
0.2389712,-0.2256040,-0.7021225,0.2724938,0.6256002,0.8303528,-0.0944519,-0.1815894,-0.2329062,0.5649143,1.2022089,-0.2216811,0.0196001,-0.2835786,-0.6832809,-0.2688252,0.2879752,-0.3134196,-0.0477976,0.2912998,-0.2296340
0.3095348,0.1862945,-0.4708244,0.5901812,0.5405214,0.9012693,0.1649511,0.0039794,-0.3191630,1.0454669,1.0535671,0.3751196,0.2725161,0.3116068,-0.6131330,-0.2064331,0.7928774,-0.1007464,-0.1912398,0.4092788,0.3513058
0.2898918,0.2014478,-0.1969169,0.5901958,0.1385772,1.0329955,0.3339452,0.2583485,-0.3724394,0.5120588,1.2668724,0.1914456,0.2551492,0.1644168,-0.3150409,0.1597378,0.9666606,-0.1532066,0.2342246,0.5960301,0.2568177
0.2333929,0.3030308,-0.2835944,0.5338863,0.6869500,1.7148039,0.3895471,0.1198850,-0.2675405,0.8727972,1.6311402,0.6813161,0.2374189,0.3157743,-0.3040285,0.4038893,1.0932059,-0.1116082,0.1331961,0.6232235,0.0788841
0.2406491,0.3602283,-0.4234189,0.5732620,0.8956469,1.0405023,0.3348152,0.4275945,-0.1397521,1.1095926,1.5909222,1.1358727,0.4662443,0.3206527,0.0005505,0.4949289,0.9401138,-0.0060180,0.1840017,0.4726000,0.0309945
0.3872257,0.4163530,-0.6138691,0.7240179,0.3071244,0.7184041,0.2666010,0.6464489,-0.1332934,1.2316222,1.5736377,0.9563061,0.6014221,0.3852124,0.3050404,0.5874221,0.8516512,-0.2813069,0.2877780,0.5836797,-0.1365162
0.6180128,0.3143004,-0.4674174,0.9335790,1.0488074,0.6001250,0.3803472,0.7205213,0.2068052,1.3169399,1.6792793,1.0474476,0.2095736,0.2684939,0.3556111,0.7407285,0.7270893,-0.2475722,0.5125574,0.7499225,-0.3530213
0.7768228,0.0030447,-0.3853330,1.0272551,1.0056182,0.4685826,0.5115771,1.0502747,0.7944788,1.5444738,1.5915258,1.4256923,0.2089664,0.3720731,0.7614944,1.0642952,0.8190776,-0.0799823,0.7455311,1.0622941,-0.2963238
0.8835624,0.1840801,-0.0721007,1.1411020,1.0023893,1.0282295,0.6180328,1.3063610,0.6025465,1.5323451,1.5370454,1.4478221,0.6862841,0.7138762,0.9859358,1.1085778,0.7819096,0.1055281,0.8701529,1.3197811,0.1666984
0.9307947,0.5777979,-0.1209743,1.1928654,1.3469111,0.7627573,0.7853231,1.4930105,0.8788531,1.7931744,1.4039236,0.7845032,0.5925955,0.9000168,0.9434738,0.6064854,1.0895240,0.1539156,0.8258903,1.2476028,0.1068634
0.7687911,0.4480988,-0.0336165,0.9782657,1.2576889,0.5157554,0.6910549,1.3051437,0.9571203,1.8991823,1.6447754,1.1490142,0.4796432,0.7207714,0.9284874,0.7893222,0.8106220,0.2790351,0.9656477,1.2509859,0.1274220
0.7647691,0.3896759,-0.0361657,0.9365937,0.8557825,0.3833429,0.8105514,1.2602477,0.9663512,1.9837115,1.6551465,1.4088461,0.6208683,0.7025598,0.9342586,1.2525563,1.1779611,0.2122183,0.8975959,1.2475231,0.0914761
0.7371850,0.3440760,-0.3648063,0.9156207,0.7219346,0.6665891,0.7644122,1.4242792,1.2210560,1.7196212,1.4982473,0.9314779,0.5439256,0.7754308,0.8728961,1.0568820,1.1707172,0.0030137,0.9302706,0.9483232,-0.2068770
0.6466743,0.4196771,-0.3746765,0.9613040,0.8761901,0.9763895,0.4262271,1.1801724,0.8282234,1.6436291,1.5726172,0.5354038,0.4614414,0.6693224,0.4798842,0.5505131,0.7023430,-0.4247544,0.6094671,0.7032558,-0.4296413
0.6396285,0.3086951,-0.2878887,0.7946629,1.1658347,0.5542093,0.4317589,0.9135833,0.4208900,1.5495218,1.3824991,0.8461242,0.0802675,0.5839353,0.2131539,0.3422413,0.3861818,-0.4425772,0.3351143,0.2417845,-0.7433133
0.4776851,0.1608548,-0.5003133,0.7557087,1.1243076,0.7303398,0.3212942,0.8504437,0.6132247,1.2800338,1.3395386,0.4034163,-0.3615557,0.2337764,0.0261266,-0.2144565,0.1439400,-0.4431822,0.1733677,0.0722308,-0.7103874
0.3967997,0.3247150,-0.5931103,0.6149924,0.8980796,0.3973585,0.1900405,0.6881531,0.3824871,0.9566618,1.3862433,-0.3282732,-0.3706113,0.1058900,-0.2429337,-0.4684429,0.1096394,-0.5915754,-0.1982311,-0.3947933,-0.8811806
0.2933116,0.2061785,-0.3944541,0.4468138,0.6237860,0.2296491,0.5032563,0.2606138,0.0639514,0.7150208,1.5207016,0.1424915,-0.1594666,-0.0197889,-0.4495432,-0.4536811,0.2555918,-0.6001776,-0.3855237,-0.3550034,-0.9238609
0.2989490,0.0800906,-0.3742308,0.3948600,0.6179107,0.6997529,0.3989326,0.2916426,-0.0214208,0.9070218,1.2321253,0.4690697,0.0075826,0.1660396,0.0751892,-0.0541966,0.1014017,-0.1983231,-0.2862440,0.0153247,-0.5659495
0.4449638,0.2791377,-0.3832609,0.5494869,0.6788371,0.9580505,0.4746028,0.5956227,0.1732574,0.7037972,1.3016682,-0.2998362,0.3011992,0.4373572,-0.0160550,0.2612051,0.5509536,0.2248622,-0.2314679,-0.0197898,-0.3698946
0.5194944,0.4415666,-0.3425108,0.7273120,0.7545944,0.8898032,0.5768559,0.7572305,0.3812683,0.9794630,1.5235560,0.2237121,0.6396561,0.6542522,0.0656587,0.1709472,0.5879555,0.1792378,0.0279481,0.1794289,-0.3713851
0.4779600,0.0435462,-0.2860793,0.7247589,0.7019036,0.7789595,0.5100314,0.8217544,0.3675848,1.1395603,1.2852681,0.9172339,0.6284485,0.6274201,-0.0096410,0.2723331,0.3219227,0.2199531,-0.0470105,0.0115271,-0.1955251
0.4596300,0.3033013,-0.5507485,0.7608343,0.7789993,0.9804103,0.4582391,0.7910470,0.0379875,1.1253392,1.1936071,0.3956881,0.3181400,0.3421889,-0.1725845,0.2001763,0.3093970,0.0133411,0.0382186,0.0355429,-0.3135174
0.5783664,0.3829825,-0.6394621,0.7814651,1.0043488,0.7519801,0.4305062,0.7201965,0.1961489,1.0839225,0.8979833,0.1596875,0.3126505,0.2829821,0.0513897,0.4130910,0.8642657,0.1677248,0.1936540,0.3957074,-0.1931752
0.3296307,0.3565502,-0.4599661,0.6745515,0.9186445,0.5177627,0.4177383,0.4275177,0.4634280,0.9718621,0.7756973,0.8187642,0.2126829,0.2956000,0.2554053,0.3021723,0.4320232,0.1392948,0.3092230,0.4091642,0.0775148
0.4675190,0.3491506,-0.4977064,0.8142785,0.5985516,0.6028225,0.5398053,0.6288499,0.5271211,0.8805963,0.6203028,0.4730655,0.2940845,0.3491107,0.2060056,0.0139160,0.2848021,0.1474975,0.3501818,0.3272056,0.1993852
0.7090108,0.3506961,-0.3362786,0.7734460,0.7305641,0.7528157,0.7098280,0.6075048,0.6146698,0.9555354,0.4634273,0.1945279,0.6072369,0.5840300,0.3557786,0.3045635,0.3653173,0.2991966,0.5632844,0.5696178,-0.0473055
0.6374178,0.5282835,-0.1408214,0.8155300,1.2080398,0.7763014,0.5914978,0.5446090,0.5929147,1.1294054,0.8533420,0.8306741,0.7413867,0.5641189,0.4595596,0.7183478,0.6301904,0.4855781,0.7154341,0.4893137,0.1085596
0.6233420,0.4159272,-0.2551432,0.8244759,0.9610056,0.8155959,0.6503374,0.7791712,0.6255734,1.4890622,1.2374825,0.9641785,0.8846835,0.3385451,0.4315283,0.8044795,0.7817721,0.1307972,0.7457357,0.5275404,0.0671789
0.6521376,0.4031258,-0.5522920,0.7654625,0.9355576,0.3015616,0.2720824,0.9789227,0.7898516,1.7384679,1.4002774,0.4542844,0.3583882,0.1178887,0.2825390,0.6592603,0.5859298,-0.2005242,0.5832363,0.7984004,0.0412515
0.6185544,0.2807851,-0.3245483,0.5427011,1.1274173,0.3337803,0.1495014,0.5794825,0.7463564,1.7365801,1.3623718,1.1358141,0.1565049,-0.0153474,0.1652169,0.7847981,0.6870188,-0.3418687,0.4319955,0.8207781,-0.1465525
0.5212345,0.0100188,-0.5637378,0.6768606,0.5870605,0.2234515,0.3204192,0.4618198,0.4621958,1.1245744,1.5769254,1.8622292,0.2750219,0.0394012,0.1633139,0.5583933,0.6208677,-0.2878452,0.3291154,0.5110973,-0.3202850
0.6050302,0.1536628,-0.7688979,0.7469283,0.7851549,0.4474670,0.3459114,0.6434938,0.4190848,1.2520419,1.3187393,0.5620137,0.3567912,0.2088802,0.3438582,0.5938991,0.7092573,-0.3616068,0.4092970,0.2149863,-0.2379993
0.4911222,0.2920712,-0.5108362,0.7004120,0.8071665,0.4757024,0.5567299,0.8252598,0.5016176,1.0162005,1.7348263,0.5093753,0.4314910,-0.0676857,0.2558508,0.2886119,0.9677753,-0.2197304,0.2861842,0.6509997,-0.1853221
0.4786559,0.2607675,-0.5637444,0.6770788,0.6923670,0.7940668,0.6880698,0.5640498,0.2857576,1.0720235,1.8037589,1.2008809,0.4469701,0.1244316,0.1925597,0.4586123,1.0085413,0.0270066,0.3230567,0.5478567,-0.0993346
0.5460006,0.4403142,-0.2465210,0.6436181,0.6801835,0.8717859,0.7994664,0.6870868,0.4499862,1.3312798,1.3475617,0.8502955,0.7536600,0.5048340,0.1930552,0.7930560,1.3331203,0.2321654,0.4741787,0.7167533,-0.1085083
0.5783179,0.6992276,0.0804188,0.6701232,0.8675818,1.1913639,0.8024859,0.6862829,0.6019416,1.5134705,1.6013172,0.4972184,1.2051072,0.4640171,0.1479408,1.3106539,1.3218622,0.2964974,0.7828192,0.7006375,-0.0640327
0.6115741,0.3190405,0.0937226,0.7120616,0.8670621,0.9888479,0.7485770,0.6400027,0.4894352,1.3990983,1.5687985,0.7708156,1.2285448,0.7416765,0.1680831,0.9320670,1.1108700,0.1226268,0.5173126,0.4189163,-0.0713405
0.5821874,0.0050919,0.2976540,0.5717669,0.5782180,0.6825908,0.7998788,0.7577537,0.4176798,1.0754439,1.3187163,0.6054851,1.0453317,0.6552679,0.0388250,0.6056136,0.8653865,0.0915731,0.3278319,-0.0316366,-0.4228433
0.6356329,0.1531292,-0.0368864,0.5769290,0.4141349,0.6608237,0.5387990,0.5826897,0.2159781,0.9567071,1.2915390,0.1917700,0.7360130,0.2606423,-0.1233978,0.0284414,0.3801238,-0.2131244,0.1106878,-0.1030142,-0.4969205
0.5277624,0.2538527,-0.2126465,0.4092152,0.4867628,0.6079976,0.4950468,0.2841468,-0.1483111,0.9793192,1.5006554,0.4565109,0.4950528,0.1076480,-0.2871305,-0.1454216,0.3296809,-0.2694016,-0.0371485,0.0656806,-0.3987922
0.4602746,0.2985203,-0.0713936,0.2842869,0.8228927,0.5606638,0.5642600,-0.0484980,-0.2960792,0.6432877,1.3586104,0.7769395,0.6461905,0.1677607,-0.3384238,0.0182509,0.2525584,-0.3539559,-0.0930650,-0.1471596,-0.3753110
0.6838190,0.4721060,-0.1696184,0.5826614,0.9068969,0.6054137,0.6292517,0.2613035,0.0288002,0.8159084,1.4740621,0.4695935,0.7739866,0.3933983,0.4420936,0.5058807,0.6255941,0.0432521,0.1360183,0.2875708,-0.0015326
0.6660231,0.7138513,-0.0707057,0.8560359,1.1021854,1.4077480,0.9287808,0.7651789,0.5158681,1.4158159,1.6714801,0.6732207,0.9083285,0.4791628,0.3943495,1.0549152,0.6495994,0.3824494,0.3855498,0.5377080,0.3612511
0.7434046,0.6403738,0.1629933,0.9663299,1.0158929,0.9497290,1.1229460,0.8931092,0.9047484,1.3443779,1.4981548,1.2453493,1.1033874,0.7725216,0.8397220,1.0762557,0.9743111,0.6818100,0.7290326,0.8901715,0.4745814
0.7288489,0.4853363,-0.1020395,1.0662495,0.9021759,0.7502453,1.0754775,0.9403125,1.0684505,1.3723648,1.5659839,1.4862235,1.2367777,1.0919673,1.0051235,1.2535710,1.1329257,0.8564726,1.1725545,1.3891715,0.9779727
0.7801805,0.5890176,-0.1353785,1.1144620,0.8001983,0.8324351,1.0242084,1.2229528,1.2128210,1.5147370,1.9136933,0.7351341,1.0647678,1.0652457,0.9349301,1.2911026,0.8899684,0.8878483,1.0271213,1.4443910,1.1163540
0.8149997,0.5726783,-0.0261672,1.0910155,1.3118557,0.6061796,1.3057082,1.3591799,1.0776398,1.5710485,1.4562240,1.4988304,1.6129676,1.1800749,1.0439501,1.5232211,1.1845763,1.2541484,1.2014773,1.7076668,1.2282733
0.8482802,0.5740080,0.3264091,1.0507891,1.1523287,0.6367715,1.4886299,1.2163466,1.2131293,1.7528554,0.9641083,1.7137367,1.5623817,1.4416878,1.3271348,1.4697330,1.2344174,1.5624818,1.4275061,1.9981467,1.3759433
0.6627138,0.6541846,0.4617695,0.9562412,1.2103692,1.1119535,1.4563930,1.2898999,1.2673467,1.4131265,1.0303271,0.6496291,1.5193028,1.5169717,0.9767227,1.4854583,1.2791942,1.4396671,1.1531497,1.6702356,1.3507812
0.5964443,0.4890980,0.5032183,0.7397071,1.3278859,1.2670122,1.2514855,0.9207863,1.0875701,1.3708681,1.0474116,1.1175666,1.5163593,1.1575128,0.4894786,0.8669302,0.9322172,0.9986467,0.7672847,1.6090491,1.0566684
0.5121974,0.2535281,0.2944720,0.8124975,1.1499413,0.8894946,1.1543314,0.7132827,0.8418283,1.5723085,1.2231469,1.4882990,1.3759668,0.8666545,0.3844081,1.0341045,1.1219878,0.7878141,0.7364697,1.5071751,0.6969879
0.5187688,0.6709911,-0.0001677,0.8597500,0.9677757,0.9420056,0.7089060,0.9904448,0.9684584,1.6379440,1.3779800,0.5386632,0.8762932,0.8378257,0.5672541,1.2184982,1.4745244,0.6197004,0.8595349,1.2544024,0.7287968
0.5781892,0.4291523,-0.4117337,0.7535210,0.9347827,1.0410239,0.4774483,0.7775866,1.0129344,1.1887207,1.3557788,0.7303532,0.8290608,0.5354537,0.5730091,1.4713658,1.2360801,0.4008141,0.8063917,1.0911230,0.7269427
0.5656593,0.4173502,-0.3471853,0.8159971,0.7889243,0.5664980,0.5299597,0.5306183,0.8615569,1.4324008,1.6274725,1.2927307,0.9157469,0.4859653,0.6639993,1.2967575,1.4686209,0.6362588,1.0232486,1.1663405,0.7671497
0.5584924,0.3804036,-0.2624033,0.9705124,1.0778531,0.7296654,0.6279894,1.0079714,0.9178664,1.9645641,1.6331965,1.2436472,1.0462486,0.7343287,0.9909634,1.1804868,1.4762151,0.8566399,1.1997832,1.2664118,0.9564996
0.7510400,0.2168026,0.0173342,0.9602735,0.9881738,0.9213134,0.6855338,1.2654678,1.0746868,2.0249834,1.8163960,0.8935628,1.1151769,0.9092582,0.9157496,1.2806855,1.3192859,0.7709285,1.1842003,1.2853639,0.9347880
0.7266933,0.2545061,0.2202148,0.8552935,0.8944063,1.0238928,0.7455425,0.9927399,0.8511199,1.9396906,1.6777186,0.7407123,0.9736055,0.8188732,0.8357289,1.2326508,1.2816356,0.6624242,1.1468065,1.0676234,0.8042354
0.6894431,0.7106617,0.0897375,0.9337171,1.0241989,1.2658921,0.7256206,0.9246244,0.7500337,1.6740155,1.6400473,0.9888203,0.9929631,0.6477174,0.6949289,1.1070161,1.0650789,0.7634159,1.0197197,0.8242335,0.3751919
0.5580423,0.6609656,-0.2798391,0.7810346,0.9022915,1.2555017,0.7082657,1.0771836,0.8936857,1.6216089,1.6116151,0.2959490,0.9869903,0.5704710,0.8227538,0.8829720,0.7614435,0.3009759,0.7699872,0.6455778,0.2782313
0.4142815,0.3292142,-0.1473481,0.5884882,0.9198461,1.3812864,0.6145849,0.8368558,0.7439979,1.5863107,1.8263774,0.2380403,0.7983267,0.5249612,0.7095795,0.8254774,0.6132894,0.2307114,0.7100639,0.7411686,0.1862164
0.4053304,0.1337970,-0.3755966,0.5015160,0.5849960,1.2095329,0.4922010,0.5682998,0.5958560,1.3045566,1.9232632,0.8881515,0.6621492,0.5468167,0.4687990,0.5092258,0.7511248,0.3525753,0.4783809,0.6198165,0.0913750
0.3870765,0.2432818,-0.3863384,0.7578216,0.4636604,0.8786718,0.5508864,0.7180181,0.7228228,1.3523659,1.8428426,0.3301734,0.2429322,0.1593468,0.6418467,0.5173773,0.5024846,0.2747998,0.5189582,0.5465899,0.1468253
0.3795247,0.4704271,-0.1927293,0.7872900,0.4652734,0.9368349,0.5875027,0.5339627,0.5302941,1.3944989,1.8453544,0.8992450,0.7442753,0.4320429,0.6802613,0.8696116,0.9472129,0.4357767,0.7165709,0.9996110,0.4501577
0.5596789,0.2892429,0.1946857,0.8425326,0.5847631,1.1465124,0.8610013,0.6446810,0.7107430,1.3898704,2.2322528,1.8047690,0.9733940,0.6345478,0.6575708,1.0088723,1.1839736,0.7725220,0.7000500,1.2489949,0.9097828
0.6399664,0.0692425,0.1964168,0.8618419,0.7154565,1.1920165,1.0260934,0.8440425,0.8184415,1.7205671,2.2383926,1.8315290,1.1662430,1.0413080,0.6466531,1.2742459,1.2551016,1.3553283,0.9684976,1.4039872,1.0302234
0.5925776,0.1274975,0.3393573,0.6540532,0.8566810,1.6368877,1.0442256,0.9871854,0.8621448,2.2784476,2.1268327,1.4869103,1.2846234,1.1374067,0.6389513,1.3494675,1.2686543,1.0877464,0.8162240,1.3259453,1.0485262
0.4849127,0.2320510,0.2908614,0.6511648,0.6808248,1.3751575,1.0263788,0.6464337,0.6652537,2.0974436,2.0774605,1.6338278,1.3090479,1.0563304,0.4120136,1.3255891,0.9793797,0.9360245,0.7897590,1.1766282,0.6932864
0.4970033,0.5986651,0.5451893,0.8109145,0.4164914,1.6341079,1.1556860,0.6031519,0.6597818,1.9255794,1.8966321,1.6412878,1.2025247,1.1601226,0.6090453,1.1895850,0.7023102,0.8017223,0.6865066,0.7337335,0.5855395
0.5071122,0.5381003,0.4529319,0.6579560,0.7719743,1.5117191,1.0065643,0.7198899,0.6299468,1.8044801,1.4627922,1.1146731,1.0293657,1.0614265,0.5011260,0.7794620,0.3403524,0.9304155,0.4714722,0.6700577,0.5916050
0.4786052,0.2934059,0.1939528,0.7508189,0.7999455,1.5077426,1.0388795,0.5458702,0.6589564,1.3677298,1.5499789,0.8986192,0.7881507,0.8836662,0.2085773,0.5745647,0.3322327,0.8996632,0.1773546,0.5808713,0.4819132
0.5305795,0.4886196,0.5130577,1.0361624,1.0309700,1.2084640,1.1048555,0.7431282,0.8541109,1.2323873,1.8319714,1.4299676,0.8944370,1.2062236,0.9165439,0.6468248,0.6497766,0.8003021,0.5659980,0.9426312,0.9308853
0.6879801,0.4872990,0.3444428,1.0760881,1.4007276,1.1398106,0.9397286,0.9791632,1.2376236,1.5737634,1.7211829,1.0710746,1.0427052,1.2269104,1.1172192,1.1569020,0.9476477,0.7172951,1.0759339,1.0868745,1.3421961
0.7415190,0.5539584,-0.0209589,1.0430979,1.5517346,1.3026782,0.9148831,1.0849072,1.1955316,1.9942714,1.9782120,1.4068342,0.8731256,1.1411831,1.1173638,1.4343675,1.1926651,0.5995941,1.1300391,1.2300366,1.1665261
0.5737613,0.1571294,-0.3464184,0.8963711,1.1683799,0.9447903,0.5299837,0.9952867,1.0358225,2.3957980,2.0196707,1.4829181,0.9541254,0.7546555,0.9177608,1.2301320,0.9690093,0.6809281,0.9102838,1.3358186,0.8449619
0.3111513,0.1084563,-0.6058865,0.6899028,0.9287125,0.8781515,0.0946034,0.8217005,0.7023052,1.9444445,1.8707528,0.9918325,0.8341224,0.3759595,0.6805776,1.3111670,1.2890835,0.8187298,0.9188660,1.2329047,0.9185835
0.2806301,0.2585294,-0.7896420,0.8124221,1.1709406,0.9758995,0.3583110,0.6057719,0.7840793,1.7480614,1.9081569,0.7551922,0.6294819,0.2317207,0.6502762,1.3352257,1.2745302,0.6021403,1.0820321,1.2015901,0.5326663
0.5108603,0.1137090,-0.4138050,0.8220590,0.7112322,1.0617796,0.5262920,0.6094258,0.8225280,1.5902145,1.8577969,0.8486739,0.4683878,0.2738658,0.3248876,0.9355651,1.0846391,0.5028528,0.7472069,0.7940128,0.2179476
0.5542479,0.1424953,-0.2226393,0.6822230,0.4505265,1.1736138,0.6196147,0.4886755,0.5150127,1.3129035,1.7812452,1.0028238,0.9217299,0.4227881,0.3434036,0.9187254,1.0785116,0.7884359,0.4993472,0.8146207,0.7286655
0.5239882,0.2428296,-0.0653907,0.7435121,0.8324226,1.6580025,0.6980670,0.5810047,0.5426692,1.4170127,1.8651706,0.7404592,1.0185314,0.4285412,0.2115472,1.0137951,0.9403868,0.7865086,0.2733715,0.7023228,0.9489589
0.6082829,0.1800915,-0.2503915,0.4886267,0.8042813,1.2313697,0.5275394,0.4052531,0.5253791,1.6983654,1.8401442,1.0404171,0.8667263,0.5730475,0.0732684,1.0441526,0.9455819,0.6486418,0.3463194,1.0459379,0.9322553
0.5600201,0.0638124,0.0528069,0.6345673,0.3167873,1.3545200,0.4720682,0.2103494,0.6745203,1.3173878,1.6249909,0.7635410,0.5103287,0.6991792,0.2531992,0.9065351,1.0571704,0.7851447,0.3630729,1.0129287,0.9416305
0.4190886,0.2589988,-0.0629994,0.7006990,0.6579947,1.2598767,0.7341638,0.5021242,0.7670928,1.0981241,2.0028424,0.9187007,0.6203800,0.7572949,0.4798185,0.7953997,1.0338413,0.7509008,0.4485326,1.2304639,0.7596565
0.4740084,0.1848443,-0.0899052,0.7052941,0.9972050,0.7548221,0.6459137,0.4105849,0.7412869,1.5513607,1.9101825,0.7768388,0.7615508,0.4027328,0.4079037,0.7819401,0.9589657,0.5828878,0.5251684,1.1450638,0.4854688
0.5697191,0.0850694,-0.1073221,0.7872491,0.8824703,0.8741061,0.6511267,0.3447453,0.7530410,1.4370337,2.0258169,1.2052329,0.6094444,0.4682015,0.3103370,1.0243526,0.9725828,0.7350128,0.5638124,0.8864684,0.6512555
0.5828823,0.2528680,-0.1186910,0.8305472,0.8911561,0.6686516,0.6689949,0.7362565,0.7189951,1.2661506,2.1616256,1.1786042,0.8161079,0.6021841,0.6415946,1.3446976,1.1001161,0.8473720,0.8148118,1.1031120,0.8445530
0.5904046,0.5528280,-0.0510157,1.0295738,0.9983918,0.9658661,0.8597819,1.0478846,0.9794515,1.7728926,1.9886812,0.9242653,0.7692689,0.9198560,1.0272202,1.4844124,1.3168225,0.6091474,1.2334942,1.3052831,0.9806517
0.5773038,0.2223019,0.0431663,1.0099102,1.3746588,0.7727658,0.7072147,1.1000473,1.2792563,1.8606191,1.9227524,1.3329382,0.9318898,1.0637338,1.0630915,1.7895899,1.3081692,0.7932434,1.3788919,1.5230780,1.1377295
0.6619987,0.3929547,-0.1017649,1.0478802,0.9756675,1.1875283,0.7889377,1.1002123,1.1771760,1.8903232,2.1312077,1.2186559,0.8894899,0.8168107,1.2265604,1.7688843,1.0664812,1.0278993,1.3726336,1.7321820,1.2597674
0.6950473,0.5530904,-0.2960173,0.9386050,0.7208177,1.0587707,0.6990936,1.1350557,1.1112407,1.7104992,2.0300016,0.3049334,0.8726351,0.8481205,1.1196357,1.3186860,1.3706483,1.0255256,1.5306314,1.6747901,1.2607908
0.6517398,0.4755163,-0.2580783,0.7639401,0.7901973,1.1754198,0.4713126,0.9693714,1.1001377,1.8059239,2.0017474,0.5374550,0.5930378,0.6364415,0.7676022,1.0554420,1.1765994,0.7499983,1.0702902,1.3423493,1.0572604
0.4486978,0.5995290,-0.5211088,0.7412225,0.6843082,0.9528474,0.2999203,0.7080488,0.6693692,1.5943280,1.8942604,0.9068518,0.3785641,0.3645216,0.7231046,0.7163255,0.4226006,0.6518505,0.7122637,0.9744936,0.5701315
0.3286061,0.4651611,-0.6578994,0.7028555,0.1826718,0.5421231,0.4215016,0.6923262,0.5044468,1.2065909,1.6540852,0.5939836,0.5375794,0.3837733,0.7731501,0.7430865,0.7982353,0.6195782,0.6769656,0.7599795,0.4634446
0.4036951,0.3908785,-0.5626167,0.6535305,0.3603967,0.6363291,0.2510230,0.4470823,0.5941019,1.4884027,1.8066453,0.8683042,0.6604106,0.5695525,0.6455858,0.4278963,0.5406579,0.5044752,0.7113819,0.7326870,0.4813004
0.4031433,0.2803273,-0.5412845,0.5918611,0.1901125,0.6071132,0.3280911,0.4308217,0.6323797,1.7622769,1.7734029,0.8813790,0.6724261,0.5226822,0.6739767,0.6549379,0.5860018,0.6423395,0.7783965,1.1237051,0.6370651
0.4241331,0.5246680,-0.4915919,0.8157347,0.5542302,0.6583513,0.5824184,0.6998476,0.8539969,1.6796601,1.8974680,0.6506745,0.8551118,0.4954177,1.0598552,0.8171949,0.9661263,0.7821979,1.0323302,1.1527994,0.6361216
0.6119499,0.6212994,-0.2723866,0.7865659,1.0057509,0.9032534,0.7994478,0.8098383,0.9495286,1.6566089,1.8820335,0.1863583,0.5239690,0.6136909,1.0704011,1.2009842,1.0532377,0.9536597,1.1076461,1.7322819,0.7184070
0.6841664,0.6494461,-0.4622363,0.9809754,0.8722499,0.5772343,0.7587661,0.8936450,0.9238468,2.0396519,1.9898819,0.6332787,1.0421362,0.9467949,1.1597062,1.0745163,1.0516437,0.9541549,1.0532620,1.6336559,1.1497247
0.7755293,0.5454257,-0.4706352,1.1612270,0.9705278,0.8356484,1.0850052,0.9060958,0.9197729,1.8215737,2.1328611,1.0971920,1.2234581,1.0875365,1.3727499,1.4859965,1.3241293,0.9811859,1.3551335,1.4249450,1.3325469
0.8899110,0.9604332,-0.4872544,1.0231758,1.0056823,0.8432717,0.9584767,1.2405466,1.1286749,1.7866770,2.3289468,0.8238904,1.2046133,1.1317089,1.1883681,1.6877674,1.8397121,0.8337238,1.5884300,1.5755790,1.0683599
0.8623279,0.4566621,-0.6731584,1.0171835,0.8887769,0.6276553,0.9440307,1.1488355,1.3427345,2.1059470,2.2495840,1.4558225,1.1403357,1.0753936,1.3063046,1.8659394,1.6503344,0.8798842,1.8294213,1.6196511,1.0275474
0.8091459,0.3098725,-0.2936393,1.1716467,0.9539538,0.8976049,1.1040810,1.2715756,1.2367165,2.2941444,2.3339167,2.0961618,1.1824999,1.1830904,1.4114692,1.7033136,1.5153773,0.9322475,1.8479717,1.4775749,0.9724143
0.7260913,0.4980471,-0.3014001,1.1680664,1.0881970,1.0503846,1.0816690,1.3585413,1.1019498,2.1197712,1.8959942,1.3545440,1.0075806,1.1632754,1.1700087,1.4452471,1.1973978,0.9861547,1.7416513,1.4189695,0.7883548
0.7712289,0.5514671,-0.3755934,0.8839650,1.2796979,1.2648513,0.8134159,1.2963065,0.9538922,1.9603894,1.9530654,1.4065294,0.7551220,0.9784369,1.0617141,1.4005508,1.2859201,0.6443852,1.5226897,1.4839808,0.6139189
0.6485923,0.4608374,-0.2875560,0.8079358,0.7664763,1.1927397,0.7169693,1.0373486,0.8657457,1.7653619,2.2291257,2.1244156,0.6231369,1.0063468,1.1139417,1.4910272,1.4608806,0.9027286,1.6169900,1.2825392,0.8946951
0.6351143,0.5440262,-0.2292007,0.9576908,0.8561012,0.9617316,0.7170535,1.0975758,1.0107917,1.6147462,2.1709213,1.5449992,0.7347103,0.9823763,1.2950671,1.4878762,1.4473680,0.9488094,1.5779380,1.4343419,0.8908314
0.6308225,0.5951070,-0.3717184,0.9891990,0.7532624,1.5316751,0.7790889,1.0467122,0.9649961,1.6982933,2.3162844,1.1207607,1.0077206,0.9968552,1.0779290,1.6079357,1.3417197,0.8583345,1.4742833,1.3709832,0.6851943
0.5694486,0.5466613,-0.4270710,0.8406734,1.0418385,1.0808405,0.7365324,0.9335244,0.9749241,2.1414692,2.1094582,1.4930291,1.2128111,1.0652021,1.2469028,1.6667238,1.2737044,0.8083196,1.4030582,1.2500594,0.6394417
0.7049379,0.5847902,-0.2178492,0.9884689,1.0754970,0.7840611,0.9197501,1.0520329,1.2254177,2.0022478,1.8912358,1.7307142,1.0616442,1.0484552,1.3626871,1.5990667,1.1800959,1.0670640,1.4985660,1.5957633,1.2274526
0.8525138,1.0192910,-0.0949777,1.1355402,1.3985567,1.0000999,1.0031731,1.1403906,1.4334209,1.8075308,2.0177999,0.8232749,0.9996485,1.1861590,1.2761682,1.7143251,1.0689809,1.2258139,1.5777570,1.3709466,1.2705996
0.8576805,0.9137052,0.3147522,1.0862889,1.0845393,0.9496800,1.1176660,1.2473062,1.2080859,2.0410151,1.8004953,1.0581867,1.1085339,1.4247801,1.2022142,1.9314659,1.4304396,1.1368579,1.6635753,1.3038306,1.0931755
0.7576607,0.4567064,-0.1224695,1.1066775,1.1101861,1.2901974,1.0376136,1.3797506,0.8234918,1.8565710,1.7150424,1.4823928,1.0003117,1.2464319,1.1795355,1.5019318,1.5385672,0.9990413,1.5194367,1.4171360,0.9519525
0.6697956,0.8337510,-0.0836005,1.0679675,1.0112392,1.1163369,0.8450043,1.2235245,0.9973416,1.6761250,1.9532597,0.7129069,1.0050619,1.2186977,1.1553395,1.3399197,1.2554635,0.9139144,1.5928262,1.3971440,0.8682767
0.5904864,0.8130341,-0.2281501,0.9683861,1.0122547,0.7412618,0.4958745,1.1563499,1.2163291,1.7820302,1.7720976,0.3725988,0.6794267,0.7897727,1.3173428,1.5128032,0.9165551,0.4919880,1.5276312,1.3060681,0.7057948
0.3304294,0.3476481,-0.3396886,0.7292204,0.7131677,0.3804213,0.5849774,0.9997762,0.9403571,1.8688581,1.8464200,0.9717375,0.7038740,0.4591382,1.0072201,1.2926284,0.7535280,0.5539091,1.2678933,1.0009452,0.9512707
0.5347769,0.8957326,0.2389067,0.6078662,0.6111329,0.6288702,1.1599686,0.7569889,0.4452170,1.5072856,1.2976434,0.1074213,1.1397475,0.7950754,0.4042161,0.7816179,0.8513352,1.0896651,1.0459576,0.7055596,0.8252452
0.6311752,1.5183836,0.5571852,0.6998409,0.6974872,0.9569418,1.3438532,0.6412508,0.4888017,0.9610395,0.8609668,0.0110420,1.0824769,1.2899008,0.4954073,0.6793952,0.8105685,1.0201702,0.8457611,0.4111667,0.6713316
0.4569402,1.1769555,0.4005536,0.6402749,0.8788202,0.7915856,1.4478331,0.5490870,0.7599542,1.6094247,1.0212110,0.6515031,1.0380177,1.5795424,0.7594158,1.0895716,1.1542716,1.2800279,1.0393254,0.6798128,0.9383278
0.7008864,0.9921336,0.4348463,0.7561379,1.0451828,0.5340732,1.3466762,0.6905063,0.7829823,1.3808527,1.3095171,1.0391335,1.1854403,1.7692577,0.9565889,1.3118081,1.1258029,1.6776874,1.4125525,0.7815053,1.1363072
0.8655080,1.2101740,0.3380137,1.0703127,1.2355632,0.6912461,1.3987927,1.1242360,0.8627864,1.5664728,1.2697242,0.3639057,1.2211761,1.7478310,1.2272761,1.4198433,1.0906627,1.8289046,1.7141672,1.0472655,1.4550167
0.9715132,1.4528346,0.3663083,1.0831028,1.6968663,0.6286948,1.5897382,1.3334117,1.0711328,2.0037010,1.2996951,0.1412495,1.2890594,1.8248559,1.4429871,1.9824214,1.1994050,1.6856741,1.7968833,1.1106038,1.5776770
0.9500964,1.2142537,0.1759433,0.9108106,1.5554899,0.6882450,1.4465201,1.4071515,1.3321147,1.9779364,1.6386712,1.2156384,1.2715091,1.8843956,1.4368936,2.1657617,1.3830101,1.6866382,1.8817587,1.0739392,1.5147964
0.7746556,1.1003890,0.0926176,0.9484783,1.3032680,-0.1647903,1.2376666,1.3510088,1.2352878,1.8497521,1.8624676,0.8517660,0.8930240,1.6028804,1.1658840,1.5037159,1.3167870,1.0314268,1.6828748,0.8792992,1.0998101
0.5546657,0.9159517,0.0264445,0.6347805,1.2301233,0.4370027,1.1451198,0.9946187,0.8861941,1.6051599,1.8821737,0.6648473,0.9039587,1.3180308,0.7960231,1.2274157,0.6678450,0.7592241,1.3207611,0.5799387,0.5136463
0.2725123,0.4555833,-0.0068826,0.3533222,0.8448517,0.7551994,0.7689263,0.2909573,0.4266245,1.4374883,1.6586121,0.8213771,0.7165897,0.9395646,0.6073374,1.0030292,0.6569571,0.4583697,0.9515921,0.2939785,0.1613234
0.1570259,0.5779564,0.2711400,0.4340187,0.6731917,0.9029356,0.7290215,0.2764764,0.1530819,1.2850353,1.6392192,0.7941722,0.5624758,0.6213918,0.2662697,0.7948478,0.6480861,0.5900085,0.7104529,0.3000522,0.2980075
0.1669852,0.7736539,0.3087705,0.3807553,0.8809819,0.9484372,0.6393059,0.4803674,0.2886766,1.0160989,1.4659462,0.4122269,0.7027839,0.5447375,0.4200650,0.9120279,0.7141171,0.5844122,0.6808754,0.4194593,0.5521477
0.2802399,0.5956939,0.2147678,0.4228885,0.9212508,1.1046548,0.6303830,0.3410918,0.4175422,1.3981259,1.4480625,1.0168362,0.7373683,0.3845768,0.7532002,1.1747192,0.8009507,0.8031324,0.9122246,0.8361705,0.9091120
0.3132192,0.7003255,0.5070426,0.3520212,0.7353598,1.1244835,0.9324080,0.3775568,0.5148622,1.4559647,1.3690159,1.3356889,1.1427474,0.9151285,0.6699721,1.2857869,1.2083421,1.1432335,1.1816627,1.1653059,1.1851001
0.3708836,0.9009330,0.3736378,0.2971955,0.7904460,0.7307989,0.9955874,0.5657069,0.5778424,1.5352607,1.3659576,0.6194696,1.1419044,1.2060341,0.6174136,1.0683218,1.2147480,1.0651299,1.3049705,1.0321195,1.2274014
0.2429828,0.8374481,0.4686929,0.0761397,0.6378884,0.5533289,1.0561848,0.3868861,0.5095249,1.3237158,1.4488274,0.8188399,0.8280131,1.0120202,0.7361996,0.9996891,1.2076286,0.6238470,1.2476245,0.9451439,0.8892490
0.1638924,0.8389078,0.3697344,0.2725420,0.5128407,0.4841180,1.0118989,0.3673586,0.2023329,0.9499424,1.0195962,0.9032388,0.9131590,1.0666748,0.2207086,0.9160087,0.7915059,0.9647165,1.0143236,0.5346597,0.8775579
0.2491685,0.9609699,0.2413714,0.3426209,0.6403701,0.2272050,1.0841286,0.3747959,0.0315118,0.8587723,1.2408545,0.6457410,0.9680889,0.9478589,0.2575801,1.0948855,1.1389608,1.4087034,0.8672274,0.6360569,1.1941333
0.3157934,0.5324494,0.2353398,0.2915689,0.5036159,0.3718342,1.2391472,0.3618222,0.3336984,1.0378184,1.7181450,1.0476705,1.1850880,1.1764896,0.3024398,1.4633108,1.6236812,1.3752465,0.7463598,1.0679162,1.1069798
0.2692238,0.3231615,0.1409052,0.3944577,0.3128960,-0.0322310,1.1277671,0.1050152,0.6362426,1.0702828,1.8143821,0.9658359,1.1827470,1.3194557,0.3632375,1.4175951,1.3344405,1.3354646,0.6788768,1.1352236,1.0633360
0.2574057,0.5945063,0.2054398,0.4332275,0.5128971,0.4737780,1.2456126,0.2510793,0.7238399,1.3311338,1.8450818,0.9439873,1.1006614,1.3747650,0.5683952,1.4479232,1.5263069,1.4809930,0.8755125,0.9643298,1.1064458
0.2996017,0.5380725,0.4351105,0.2983015,0.6361369,0.5223748,1.2572025,0.3547980,0.6690460,1.5447413,2.0297821,0.8967823,1.3455813,1.2278390,0.4897811,1.5603194,1.5891535,1.5649828,0.9558839,1.1646771,1.1236103
0.4287657,0.3325714,0.6302593,0.3852501,0.8042098,0.7670953,1.2358027,0.4455858,0.6960141,1.7108858,1.8569015,1.9402142,1.6566185,1.1870546,0.5488856,1.2320037,1.3685719,1.3984381,1.2834692,1.1532829,1.0971528
0.4487125,0.6691458,0.4737015,0.5016769,0.8550567,0.7772022,1.1727958,0.6919665,0.8393562,1.5348125,1.6443999,1.7995559,1.4859416,1.0266895,0.9954933,1.1120318,1.1995351,1.3232473,1.3163620,0.9020168,1.2120056
0.6118441,1.0671160,0.5600588,0.6172612,1.0503260,1.0659385,1.2269783,1.0339409,1.0998743,1.5876446,1.8472741,1.2682977,1.5302396,1.0326309,1.1840780,1.4406834,1.3908073,1.3865603,1.4419132,1.1927379,1.3276231
0.6779124,0.7528374,0.4573525,0.7835559,1.0988415,1.0579154,1.2809348,1.1664454,1.1358486,1.6263567,1.6367130,1.5564046,1.4650303,0.9191568,1.2336581,1.5403647,1.1701620,0.9669580,1.5214696,1.1183324,1.0464690
0.5911850,0.6924935,0.4626697,0.7186716,0.7321465,0.5460403,1.0424718,0.9101726,0.8684829,1.5659281,1.4572557,1.4480386,0.9882208,0.7212185,1.2043085,1.2882593,0.7295568,0.8099099,1.4248215,0.9637735,0.8411806
0.5276560,0.6780119,0.3835673,0.6052635,0.5854416,0.8070509,1.0418333,0.6858370,1.0714902,1.5554028,1.4452666,0.8431576,0.8857710,0.6261819,1.0104181,1.4370703,0.9118037,0.8760691,1.2745118,0.9234833,0.8839926
0.3590328,0.5197988,0.2305491,0.3751241,0.9557133,0.6783968,0.8252450,0.5541111,0.9624851,1.7458096,1.9106767,0.9885775,0.7255402,0.5632878,0.8797823,1.3177509,0.9761603,0.7382258,1.1725196,0.9210660,0.6786965
0.2702709,0.2556322,-0.0357561,0.4356382,0.4583909,0.2339288,0.3839001,0.3698741,0.6406357,1.4266657,1.8514416,1.4794130,0.9188269,0.2431164,0.8153219,1.3034021,0.7974822,0.7165740,1.2061931,0.8841658,0.9419263
0.2881262,0.1604370,-0.0791538,0.5684392,0.6120469,0.2120047,0.4072005,0.3918341,0.5915148,1.1422158,1.6756815,0.9235209,0.7502536,0.2514798,0.7792266,1.2766323,0.6254490,0.9100405,1.1426631,0.7304370,0.9021990
0.2749254,0.2257284,-0.1331016,0.5055881,0.8549970,0.0849981,0.4860169,0.3163916,0.5218269,1.3017428,1.8247193,0.4882888,0.7111698,0.4058955,0.7447314,1.0357952,0.2664350,0.7335821,0.9844814,0.5834163,0.6844917
0.1792920,0.0345617,-0.3213848,0.2725796,0.5822161,0.1279455,0.5754756,0.3291430,0.3574165,1.3609630,1.6400310,0.8050757,0.6251234,0.4885591,0.3549899,0.9815588,0.5135315,0.6518286,0.7953611,0.5616949,0.4270649
0.1900712,-0.1411458,-0.0826557,0.1398851,0.4233256,-0.3465861,0.4839841,0.2606935,-0.0166084,1.0725967,1.4360571,1.0227447,0.7212285,0.4464738,0.4018579,0.8670535,0.6592620,0.7557865,0.7289582,0.7049869,0.4231258
0.1434224,0.2394685,0.1055978,0.3735685,0.4303122,0.2238328,0.5821640,0.3768818,0.3579898,1.1116285,1.7433306,0.5413737,0.9226128,0.4256767,0.5947531,1.0089437,0.7124107,0.6433542,0.7574341,0.8420709,0.6735618
0.1739719,0.2416616,-0.1285488,0.3830259,0.3901576,0.1051610,0.7651464,0.3083008,0.6694056,1.1171492,1.5907576,0.8877180,0.7422300,0.4757468,0.2764082,0.9743433,0.8684739,0.4941142,0.4897583,0.4329946,0.2573823
0.1118374,0.2262443,-0.3079210,0.3208753,0.3489630,-0.5783363,0.7343000,0.2401316,0.4462564,1.1994801,1.4185507,1.1792806,0.6017342,0.5134524,0.1247509,0.9379086,0.5858788,0.4832205,0.3451827,0.4521639,0.2779201
0.0486282,0.1369208,-0.3378402,0.2922543,0.5441133,-0.2163611,0.5478355,0.2797125,0.4013593,0.8584549,1.4168886,0.5048715,0.8265726,0.4855419,0.1277470,0.7092806,0.3358513,0.4824640,0.4265254,0.3505761,0.2913251
0.1612571,0.1252456,-0.3583789,0.2325947,0.2171475,0.5885785,0.4847223,0.3115778,0.0553985,1.2087142,1.3689256,-0.0344908,0.4947916,0.2874981,0.2931866,0.6061848,0.2102441,0.2158900,0.3288381,0.0572129,0.2472970
0.0678764,-0.0401372,-0.3750001,0.2233271,0.1905775,0.5675403,0.3251158,0.1246735,0.0233279,1.1778086,1.2317669,0.3230835,0.2037224,0.2332808,-0.1131365,0.5411688,0.0587590,0.3403795,0.0175811,0.0892719,0.1359448
-0.0553221,0.1919837,-0.1683467,0.2732800,0.3430434,0.0949089,0.4641137,0.0818497,0.1676439,0.9538708,1.0713515,-0.2232055,0.4488136,0.0897979,0.1385133,0.5051301,0.0976895,0.3613096,0.3314545,0.3438433,0.1105503
0.0794370,0.7100327,-0.1250872,0.3128779,0.4232977,0.5030068,0.4532700,0.1431756,0.0754856,0.8319509,1.1763890,-0.4157187,0.5847590,0.1626955,0.2814473,0.6365559,0.2721460,0.1375891,0.4271824,0.5874540,0.3795717
0.1443398,0.4378657,-0.2640334,0.1827363,0.3509710,0.3471309,0.5036663,0.0182495,0.2757961,1.0145398,1.0907787,0.6873446,0.5911958,0.1873074,0.2208379,0.6410747,0.7876979,0.3702011,0.2732442,0.6006753,0.3863664
0.1209285,0.4723347,-0.1654830,0.3847959,0.0505849,0.4168454,0.5423042,0.0145724,0.0523537,0.9201421,1.4029931,0.6810728,0.6332530,0.0370381,0.3646829,0.6823055,1.0482694,0.5363253,0.4342168,0.8172063,0.5402189
0.2137243,0.3659072,0.0644182,0.3262979,0.4907379,0.3499544,0.6866350,0.2808071,0.1302012,1.1074364,1.4680909,0.5668642,0.6160465,-0.0327307,0.4282184,0.8942504,1.1411674,0.7850587,0.5554438,0.9040715,0.9660006
0.2550627,0.0812600,-0.0566142,0.1502288,0.4350527,-0.0532815,0.6069756,0.2451568,0.6625856,0.9704348,1.4802312,0.9200290,0.6595487,0.2594049,0.4695214,1.0278275,0.9645532,0.8453367,0.5591559,0.8688845,0.9457031
0.0745013,0.0713040,0.1521876,0.4802543,0.2352993,0.1246574,0.7212040,0.1890968,0.6313918,0.9329008,1.2695143,1.0501119,0.8563638,0.4243278,0.4746283,0.8384025,0.7031711,0.7778034,0.5292488,0.6551902,0.6821581
0.0997307,0.0401735,0.1805762,0.5652550,0.2259463,0.0043937,0.7802017,0.3253002,0.7739206,1.0482888,1.1757478,0.9191650,0.7923481,0.3353990,0.4441988,1.1370730,1.0510834,0.8479394,0.4987195,0.7664278,0.8810881
0.3871393,0.1739048,0.1996541,0.5873985,0.5920936,0.2451550,0.6649963,0.3168633,0.6990059,1.1556158,1.0232729,0.7964575,0.6180636,0.2376231,0.2724092,0.6898063,1.1627537,0.6644738,0.4991762,0.9203455,0.7475917
0.5575533,0.3236466,0.2980419,0.6789531,0.6808375,0.4188951,0.7743724,0.4012674,0.4812382,1.1444000,0.5556715,1.0515362,0.8101826,0.4499106,0.4156300,0.4703251,0.5536435,0.4047239,0.4060506,0.5875056,0.6126034
0.5156307,0.6740177,0.1053896,0.7780507,0.6496392,0.8372388,0.8524339,0.3106054,0.4887765,0.7505860,0.7069055,0.6631959,0.7636274,0.5655822,0.5424911,0.7382320,0.6930258,0.7799677,0.5171859,0.5500842,0.7846214
0.7549865,0.6089100,0.2321106,0.7825772,0.3552240,1.0162119,1.0609022,0.6728523,0.8139009,0.7102941,0.9710523,0.5193940,1.2064886,0.7529062,0.5396161,1.2036645,1.4076912,1.1347674,0.5991424,0.7049235,1.0677958
0.6127226,0.5049232,0.3638556,0.6360654,0.8263664,1.0266433,1.1700749,0.5397916,1.1102564,1.3702844,1.3434069,1.4500643,1.3583078,1.0919412,0.5899469,1.3069243,1.6164277,1.3326892,0.7423465,0.8921953,1.4571085
0.5841179,0.5338191,0.3918042,0.5708520,0.8017551,0.6741750,1.2346343,0.5905976,0.8010365,1.2308494,1.6945208,2.0456831,1.5667509,1.2164774,0.6682168,1.3178525,1.8262240,1.5355620,0.9017292,0.9719947,1.3072709
0.4633837,0.9925976,0.0647611,0.6504140,0.6910077,0.6717847,1.3163553,0.7313139,0.8964481,1.3363030,1.7716231,1.6354810,1.5757452,1.3919023,0.8760926,1.4368614,1.7602921,1.5714254,1.0913305,1.3448191,1.3993359
0.3499224,0.6662070,0.1380262,0.4618504,0.7557358,0.6217552,1.0637909,0.8580003,1.1095517,1.3000866,1.5262400,1.7096517,1.3799891,1.4156361,0.6633622,1.3420897,1.3229915,1.2033206,0.9757519,1.3618923,0.9151292
0.3779590,0.0531025,-0.1341559,0.4680109,0.5194654,0.6825408,0.9110315,0.4988410,0.9292862,0.8293655,1.2644600,1.5713034,0.7597479,0.9379276,0.8989610,1.0334985,0.9326446,0.8892164,0.7052106,0.6198918,0.7141233
0.4372345,0.3750932,-0.0296149,0.6288903,0.6065350,0.8316262,0.8601121,0.7072859,0.8537664,0.7648276,1.2548566,0.6194259,0.6694317,0.7634934,0.7359579,0.8378368,0.9420366,0.5556144,0.7998644,0.8175599,0.7021864
0.3217241,0.5339126,-0.1313845,0.4900200,0.4349809,0.7576703,0.8100698,0.6436634,0.7628299,1.0161167,1.2536027,0.5029618,0.5803425,0.6301033,0.8196657,0.7948314,0.8162391,0.4645544,0.8001042,1.0218244,0.6088658
0.4080922,0.6232147,0.2881926,0.4096839,0.6209501,1.2759734,0.8083428,0.7023753,0.7528526,1.3583690,1.3584731,1.4034885,0.8707086,0.6679254,1.0467026,1.0659338,0.8479992,0.6391581,0.9582350,1.0856131,0.7775103
0.6329137,0.6335073,0.2970378,0.5478012,0.8378966,1.0569879,1.0263385,1.0119767,1.0910262,1.5782565,1.6547523,1.4691168,0.9388282,0.7049972,1.1310617,1.3191254,1.2600179,0.9079375,1.0941601,0.9854576,1.0247855
0.4300696,0.6161125,0.2806697,0.5372376,0.8446202,1.2870269,1.2125342,0.8580757,1.0322092,1.4668463,1.5207886,1.4091777,1.2483387,1.0009912,0.9350147,1.3538957,1.3479770,0.9985338,1.0707382,1.1093751,1.1895367
0.3293088,0.2961884,0.2427405,0.4469045,0.7703217,1.0103602,1.2132354,0.6407657,0.7486424,1.3942217,1.2692564,1.4786052,1.3740335,1.0806941,0.9039369,1.2105268,1.2988724,1.0873574,1.2894452,1.2781593,1.4361329
0.7186578,0.7843006,0.7262121,0.9854646,1.1899557,0.8920720,1.1625414,0.7597734,0.9792011,0.9447442,0.9126849,1.3036673,1.0713373,0.8534870,1.0234268,1.1160203,1.0101280,1.0676743,1.2566279,0.7728747,1.0845860
0.9452060,1.1615154,0.6993459,1.1662431,1.2534125,1.0564938,1.2234666,1.3639116,1.3669007,1.2513337,0.8324833,1.0409439,0.9115930,0.9213133,0.9925045,1.2300351,1.1465912,0.9541021,0.8691573,0.7779469,1.0639123
0.8527203,1.1804533,0.5628372,0.9403772,1.4833626,1.2521855,1.1942667,1.1391023,1.4387791,1.5203450,1.3250905,1.6933719,1.2879825,0.8472565,1.0870993,1.4055933,1.2342178,1.0708333,1.0879343,1.3863673,1.3083620
0.6980544,0.9884074,0.7822409,0.8471115,1.3027012,0.7244609,0.9685890,0.9632070,1.4278330,1.7312670,1.4894956,2.3760190,1.0223998,1.0026829,1.1180485,1.7985718,1.4790795,0.9843231,1.2665851,1.4646211,1.2396942
0.8641167,0.6953362,0.9466422,0.8922849,1.1974086,1.3241042,0.7596616,1.1363950,1.2463880,1.3913603,1.3583113,1.5315069,0.7346396,0.6369871,1.0888664,1.4724120,1.5168476,0.6960663,0.9698318,1.1895956,1.1007992
0.8827015,0.8524206,0.5316450,0.7486899,1.3470829,1.5451291,0.6513025,0.9785791,1.1048957,1.3208375,1.0802954,0.9666001,0.7059243,0.4982924,0.7634181,1.0796481,1.2851326,0.6922413,0.5869712,0.9129210,0.8921345
0.7727172,0.8308321,0.1668189,0.6099029,1.0549226,1.2462814,0.5757355,0.7081296,0.9536961,1.1631964,1.0984195,1.1781534,0.6261559,0.4384389,0.2787617,0.8334885,0.6140206,0.5218467,0.2887324,0.4742468,0.5469165
0.7225024,0.8008713,0.2844391,0.4819131,0.9565364,0.9478781,0.4826429,0.3337668,0.6805415,0.9594033,0.9376723,0.5510642,0.4164517,0.3106464,-0.0734951,0.4028005,0.5045536,0.2140212,0.0567488,0.3779806,0.1931543
0.6687707,0.7465436,-0.0313203,0.4938638,1.2063299,0.7465118,0.1142944,0.2795460,0.4337485,0.8537201,1.1009816,-0.0149200,0.2867722,-0.2614640,-0.2777259,0.2295260,0.5637492,0.0472517,0.0429044,0.1892859,-0.1240407
0.3626924,0.3363789,-0.5037180,0.2612840,1.0170645,0.4575796,-0.0614085,-0.0238045,0.2527179,0.8876524,1.1225339,0.7119355,0.0500498,-0.4283844,-0.2631617,0.0223488,0.3520705,-0.2694530,-0.1848806,-0.2120410,-0.2337185
0.3421139,0.5278925,-0.4891241,0.3092603,0.8187642,0.2276648,0.0973266,-0.1664238,0.1771647,0.8506410,1.0282478,0.4097502,-0.0989193,-0.3572143,-0.1852590,0.0169574,0.1310580,-0.1456161,-0.1122054,-0.2782373,-0.2809348
0.6310405,0.7697799,-0.5117872,0.5801619,1.0794386,0.3310560,-0.0153064,0.0791532,0.3424838,0.8235096,0.9978171,-0.3186660,-0.0188866,-0.3115741,-0.0112144,0.3217497,0.3335548,-0.2641073,0.1605302,-0.0190906,-0.3030865
0.8432709,0.5692257,-0.5330814,0.5514484,0.9916619,0.2595253,0.2154365,0.1468866,0.4920649,0.9852169,1.2183352,-0.3234973,0.0296966,-0.1057631,-0.0153981,0.3608529,0.1816666,-0.2155337,0.1708041,-0.1592066,-0.2180474
0.7460822,0.8035907,-0.1554728,0.7491118,1.0585126,0.5220486,0.5513293,0.1585521,0.7186672,0.8538744,0.9325830,0.4375576,0.2000286,0.1276978,0.2462929,0.2859674,0.4023037,0.3042876,0.4821299,-0.0914756,0.2832918
0.9853063,1.2326602,0.1956098,0.9829221,1.3757505,1.3548847,0.8013835,0.5098675,1.0769116,0.6744987,0.9662632,-0.0362967,0.6347592,0.3852012,0.6377620,0.9565979,0.8577585,0.6528395,0.6931032,0.7087683,0.8411855
1.1774093,1.1493214,0.5254904,1.1012418,1.6884810,1.5130066,0.9729753,0.8789413,1.4140896,1.3036795,1.0501930,0.0528935,0.6664558,0.6767509,0.6515356,1.0216513,1.0622768,0.6974007,0.7183954,0.7815356,0.7814292
1.2457203,1.3839300,0.9255448,1.1872791,1.5860044,1.2355940,1.3404170,0.9261152,1.6117157,1.3637265,1.2511750,1.0130410,1.2057164,0.9784496,1.0393275,1.0508742,0.9643227,1.0090462,0.6870285,0.9693308,0.9547020
1.4078764,1.4811454,1.0999280,1.2500091,1.4623380,1.4024762,1.7203749,1.3127987,1.4801633,1.2135093,1.6306090,1.3283929,1.2731539,1.5552939,1.3492866,1.2482809,1.0918112,1.4592770,1.0561174,0.8657580,1.2931553
1.5117828,1.3017429,0.9215599,1.2266012,1.4336355,1.3406959,1.6693041,1.3739868,1.6183628,1.5838293,1.2314544,0.8802587,1.5587674,1.4246029,1.1752075,1.2741724,1.2631954,1.4618877,0.9546886,1.0387583,1.3631284
1.2819533,0.7477205,1.0075945,1.0726721,1.1019909,1.3413383,1.4889711,1.0504980,1.1530007,1.1671965,1.0049076,1.4213552,1.4717023,1.4841659,0.8713956,0.6466796,1.0617479,1.3474017,0.5754887,0.9757071,1.1575187
0.9458784,0.7708325,1.0746591,0.8830125,0.5679412,1.6138635,1.3799256,0.8806897,0.8155679,0.8642605,0.8611866,1.5526369,0.9653563,1.2295305,0.7222160,0.6305864,0.6248154,1.1158596,0.2618226,0.3588172,0.7017023
0.8315589,1.0156842,0.7098712,0.5545951,0.4859487,1.4145021,1.1867582,0.4933770,0.4500969,0.4733070,0.9252707,0.4480557,0.9753801,0.9624862,-0.2536710,0.0907867,0.1455307,0.6204557,-0.3132230,-0.0321071,0.0244243
0.4316111,0.7031714,0.4945149,0.3485823,0.8480725,1.3199476,0.7146564,-0.1712439,-0.0387189,0.2865403,0.7506052,0.1024009,0.5790185,0.5457120,-0.6380467,-0.3500710,-0.4032624,0.1831091,-0.6029108,-0.4374276,-0.2786245
0.3765611,0.9079767,0.2473891,0.2684268,0.4724292,0.9022069,0.6937531,-0.3713661,-0.1538223,0.1508480,0.4340053,0.4056795,0.3233956,0.1439081,-0.7856365,-0.4606253,-0.6328306,-0.1651762,-0.8248825,-0.5327355,-0.2111773
0.5139245,0.8561777,0.3635436,0.3111076,0.6256287,1.1094218,0.9709127,-0.1314353,0.0365668,0.1262982,0.6431570,-0.2779124,0.3808233,0.1114149,-0.4820409,-0.2631766,-0.2040349,0.1949120,-0.6042902,-0.1904373,-0.0643168
0.5669399,1.0716766,0.5217880,0.3937955,0.9427248,1.7602459,1.1026955,-0.0389574,0.0102258,0.3590690,0.8110797,-0.1341831,0.8533539,0.4957479,-0.3114693,0.1748590,0.0912214,0.7084315,-0.3737029,0.1251260,0.3815758
0.5353977,1.0021896,0.6165639,0.3923349,0.4145480,1.6178373,1.1147414,-0.0883779,0.0753903,0.3212819,0.8017707,0.4501877,1.0042791,0.9294497,-0.0986949,0.2105376,0.2222047,0.6674863,-0.0498862,0.3889917,0.6942647
0.5189821,1.0371062,0.7856678,0.3962306,0.5310600,1.5655525,1.0920603,-0.1068049,0.0357199,0.2735109,0.7339746,0.3770953,0.9942128,0.8144650,-0.0154214,0.3579578,0.4756518,0.7854528,0.2418092,0.4471945,0.5199238
0.5268146,1.4252957,0.6824316,0.4629903,0.9560926,1.5830411,1.0359660,-0.1565145,0.1074928,0.4283852,0.6370683,0.0299182,0.9745351,0.7801024,0.1149502,0.5043626,0.5952675,0.6487192,0.4373859,0.6543219,0.5553970
0.3895299,1.0191544,0.8077757,0.4906990,0.5447327,1.3556361,1.1819890,-0.0308035,0.2095845,0.9149641,0.7334086,0.7379099,0.9089483,0.9200893,0.4094641,0.5405707,0.4205157,0.5693475,0.4576782,0.8843132,0.7678277
0.5930156,0.9074724,0.8515247,0.4558485,0.2819087,1.3391752,1.1239738,0.1103360,0.2216464,0.8580944,1.0797600,0.5606034,0.8423310,0.8894680,0.7592778,0.7759207,0.4051936,0.7790070,0.6269274,1.0143212,0.7913440
0.8250259,0.8233972,0.3313909,0.6211827,0.8207723,1.2648553,1.0949211,0.4636344,0.6933579,1.1106715,1.2552804,-0.0410292,0.9161374,0.6252390,1.0542613,1.0686922,0.8146831,0.8130924,0.8954964,1.1112379,1.0670129
0.5999340,0.7171638,0.2250941,0.6384497,0.7087772,1.2665210,1.1215752,0.4896580,0.9129966,1.3790224,1.4959946,0.4551189,1.2367389,0.8449403,1.0836765,1.2057744,0.9621443,0.8761562,0.9524844,1.0348178,0.8392540
0.5990025,0.6174506,0.3401031,0.5399899,0.6114464,1.0157763,1.0341829,0.4617861,0.7638074,1.2713310,1.4637082,0.5036468,1.1430200,1.0979728,0.8050306,1.0156226,0.7043892,0.8424015,0.7401770,1.1074985,0.7865843
0.6349552,0.4951190,0.1298397,0.5465275,1.0134026,1.0554376,0.8543155,0.4547511,0.6035193,0.8585779,1.1107272,0.0562176,0.6336677,0.8516520,0.6025597,0.8566489,0.7265896,0.6543624,0.6313967,0.7582837,0.5892406
0.6228788,0.7019357,0.2049914,0.6104658,0.9845019,1.0723205,0.9822620,0.6703235,0.6109527,1.1219049,1.0859284,0.2457254,0.9454717,0.7733694,0.5205898,0.8708975,0.6640192,0.7797879,0.8095633,0.8643857,0.8106498
0.4384043,0.6598764,0.2677168,0.4247336,0.6775826,1.0883825,1.1139071,0.7224596,0.5789578,1.0791242,1.3487622,1.0592837,0.6731369,0.8537864,0.3570579,0.8042851,0.5850939,0.8280196,0.6875929,0.7401657,0.4493961
0.3705942,0.2506767,0.0768778,0.5230024,0.4255850,1.0828830,0.7970188,0.5212882,0.6375672,0.7814099,1.3255826,0.7928386,0.5292262,0.8212388,0.4973020,0.7054493,0.7474812,1.0633272,0.5134847,0.6578054,0.8429371
0.2893458,0.2293622,0.1325417,0.4019865,0.6385479,1.1017069,0.8081939,0.6395395,0.7420572,0.9813269,1.7686309,0.6671630,1.0999317,0.8901780,0.7169603,1.2067418,1.4757388,1.3608848,0.7739604,1.3799930,1.3651203
0.3658587,-0.0242883,0.6554416,0.4916658,0.8879854,1.4929143,1.1918963,0.3188546,0.6978208,1.0963027,1.6542262,2.0578387,1.3766530,1.1097869,0.9009810,1.6853192,1.5577241,1.4296571,1.0739101,1.8993466,1.7156929
0.4394329,0.4484996,0.7120971,0.6684462,1.0229360,1.8911207,1.5657165,0.5141898,0.8804536,1.4284353,1.3945775,2.6464264,1.8519506,1.4241499,1.4250867,1.9389439,1.9771856,2.0989244,1.6682321,2.2677879,2.4710639
0.4749356,0.9735411,0.9193586,0.6292117,1.1099081,2.1710579,1.8958157,0.8271980,0.9989811,1.6483539,1.6489189,2.6633663,2.2868764,1.8388556,1.6325164,2.1913879,2.5461175,2.3496344,2.0581949,2.4970040,2.5432796
0.4419500,0.7601748,1.2826091,0.4947886,0.9770743,2.2423999,1.7932252,0.5300072,0.9415995,1.7306802,2.1225984,2.5926237,2.3114285,2.1678159,1.2035569,2.1391189,2.6796482,2.0849080,1.6977463,2.5532100,2.4512367
0.2688726,0.2924668,1.2345383,0.4921674,0.9803896,1.5720829,2.0949397,0.4430621,1.1288611,1.5680697,1.8693662,2.5074112,2.3249235,2.2205794,1.1272867,1.8956053,2.2984648,2.1958449,1.4759399,2.0352008,2.1123729
0.4705672,0.6196607,1.2410680,0.5281056,1.1283416,1.8420531,1.8975415,0.6984941,0.9265625,0.9043670,1.8315195,1.9853288,2.1387482,2.0532379,0.9587634,1.5613532,1.5227790,1.7123669,1.2541108,1.6021707,1.7900105
0.4521734,0.6947932,0.9817332,0.4946441,1.2928121,2.1234255,1.6850528,0.7105254,0.9499098,1.2635109,1.5423473,1.4882215,1.9348495,1.6365969,0.8046734,1.5102215,1.5288591,1.2058712,1.0647089,1.1847856,1.3220705
0.3490789,0.7787874,0.7494707,0.3354720,1.0708444,1.6603422,1.5083635,0.6991135,0.9638652,1.2409482,1.0940769,1.2242290,1.5056918,1.5922291,0.7066218,1.2825880,1.5412558,1.4159725,0.9178193,1.2252465,1.1846765
0.4050902,0.8760220,0.9523410,0.4472452,1.0751455,1.5484079,1.5445635,0.6644254,0.7732497,0.7068541,1.4408636,1.2455072,1.1988398,1.5367106,0.7443463,1.2784997,1.1069013,1.5047125,0.7504670,1.1544708,1.3149095
0.6102769,1.2351519,1.1333084,0.7041063,1.0688198,1.9569056,1.5659246,0.7023866,0.6433315,0.9273168,1.4995464,0.9456744,1.6251917,1.6647196,0.9124809,1.6532037,1.2238004,1.3370029,0.8156118,1.2256659,1.3459449
0.7179767,1.1467341,1.0554519,0.7136112,0.9914238,1.8126411,1.4135588,0.9943346,1.0735283,1.0791360,1.7237288,1.3230737,1.4924262,1.5834773,0.9518453,1.6616279,1.3181242,1.1942540,0.9679309,1.6200877,1.1762050
0.7108835,1.2211146,1.2533962,0.6290994,0.9569623,1.7103846,1.4285823,0.8677769,1.0154557,0.9585685,1.6370775,2.1002028,1.5658575,1.4130790,1.1110663,1.3736817,1.5593935,1.3905790,0.7912538,1.5051305,1.4488064
0.7762849,1.3772571,1.2127362,0.6227896,0.9930751,1.6306622,1.3849634,0.7740428,0.6960924,1.0251245,1.6350025,1.5569570,1.7399063,1.4294865,1.0018128,1.2046648,1.8861430,1.2344323,0.9774387,1.2575607,1.2075602
0.7986042,1.1750480,0.8681405,0.5159674,0.9094856,1.2225684,1.1843710,0.5979924,0.6962268,0.9667887,1.4126991,1.1749507,1.2859277,1.1498730,0.5844247,0.9200633,1.5608288,0.9548172,0.8474477,1.2988116,1.2047601
0.6672526,0.9990722,0.5746246,0.3374273,0.4592014,1.2918246,1.2982507,0.3154867,0.4559428,0.7906158,1.4168630,1.4636575,1.1981686,0.9348617,0.3504441,1.0391088,1.7653872,1.2805591,1.0213134,1.4143879,1.6322820
0.8197492,1.1361140,0.9947470,0.4421840,0.4908018,1.7087599,1.6421062,0.2368805,0.3049930,0.4305471,1.1724160,0.8209317,1.1196436,1.3174055,0.0780438,0.9250224,1.6721133,1.4018288,0.8461066,1.3119820,1.8971523
0.8932086,1.1164778,1.0138543,0.4077702,0.6170633,2.1669669,1.2415413,-0.0131365,0.2625165,0.1290325,0.8932944,0.6495946,1.0747219,1.2945703,-0.0829626,0.7682326,1.3848746,1.3343303,0.6983964,1.0991538,1.4613280
0.7403415,0.8741459,0.9044052,0.2466250,0.6995441,2.0039394,1.3288438,-0.1798457,0.0319537,0.1894324,0.9073962,1.0776412,1.2671319,1.0150386,-0.0916482,0.8455995,1.1601655,1.3377166,0.5278425,0.9437712,1.2344015
0.5584074,0.9548029,1.0543023,0.1400813,0.3694257,1.8262888,1.4795582,-0.2124847,-0.2355047,0.2462612,0.8299561,0.8486456,1.0512017,1.0535303,-0.3335581,0.6095057,1.2423331,1.3227546,0.3979197,0.7743143,1.2935994
0.4140200,0.9085481,0.8246018,0.3095792,0.2067554,1.7457650,1.2136941,-0.1341322,-0.3857281,0.3256328,0.8548723,0.7523825,1.1430293,1.4430535,0.2164870,0.4398059,1.3703159,1.3202811,0.3416311,0.9105508,1.2537572
0.5233918,0.7223349,0.7377850,0.3331049,0.6850110,1.6254210,1.1613392,-0.0194557,-0.0918780,0.5482845,0.6767085,1.5334780,1.2493217,1.4010469,0.1205726,0.6084372,1.0408686,1.3437114,0.3700615,0.9273686,1.0468529
0.4654490,0.7065398,0.9270262,0.2496282,0.6787701,1.4287590,1.4752579,-0.1286899,-0.3845480,0.3270446,0.7540084,1.6413336,1.1498653,1.4125520,0.0918508,0.6860479,0.9751813,1.3419453,0.2146290,0.7951807,1.0215069
0.4987123,0.8759971,0.7911870,0.4499252,0.4666696,1.5626984,1.3518027,-0.1275966,-0.2156707,0.4707832,1.0026629,0.6684667,1.1686080,1.3209108,0.2103612,1.0007615,1.2898585,1.2860528,0.3195577,0.9961272,0.9870104
0.5069573,0.8978129,0.8002394,0.3834076,0.5853081,1.6503278,1.2477930,0.3619996,0.3381513,0.5847694,1.2034435,0.9682491,1.1638757,1.1183668,0.2291928,1.1945846,1.3328221,1.3043600,0.6084237,0.9154488,0.9663975
0.2913325,0.9125828,1.0403756,0.2147663,0.5493219,2.0906339,1.2430643,0.2914720,0.1667927,0.5820767,1.0909919,1.4813348,1.0827472,1.4417031,0.3466401,1.1639796,1.1592137,1.1842386,0.6273192,0.8970916,0.8089946
0.4722477,1.1300060,0.8538959,0.4563184,0.6588870,1.1806054,1.1848567,0.3423252,0.4142575,0.3877524,0.9338528,0.6822453,1.0516342,1.1754256,0.4933580,0.8939878,1.2274994,1.2262204,0.8482939,0.8862547,0.9577709
0.4919828,1.1395180,1.1922128,0.2679556,0.3919427,1.5126749,1.6144923,0.1561212,0.3088003,0.4849456,1.0297168,0.8534934,1.2031972,1.3102714,0.6388705,1.2263058,1.4724965,1.5495950,0.9744613,1.1630896,1.3418595
0.6000995,1.2692456,1.3978850,0.3240773,0.3449501,1.3485761,1.5653802,0.1734778,0.6772872,0.4727706,0.9457304,1.3809391,1.2914573,1.3335063,0.7380732,0.8786772,1.2196224,1.6318035,1.0887309,1.1396939,1.4504089
0.7805092,1.3492905,1.3591144,0.4191135,0.5434752,1.0286798,1.6422460,0.2553290,0.4318213,0.7537344,0.8737937,1.3483701,1.1645763,1.3348244,0.7040175,1.2027349,1.2802792,1.4900585,1.0795002,1.1904030,1.1960727
0.9482394,1.3027344,1.4165963,0.5688676,0.5329384,1.4405671,1.5276936,0.1342857,0.3833661,0.5652431,0.9439443,0.7792960,1.0855296,1.3212402,0.4516582,0.8851830,0.8008407,1.0854615,0.7177405,1.0159048,0.6959933
0.8748175,1.5615108,1.6210281,0.3118372,0.5828175,1.6846999,1.5429689,0.0444255,0.1048264,0.4905938,0.9903869,1.4124149,1.3102399,1.3150570,-0.0813197,0.2807600,0.8894187,0.9107563,0.4214011,0.6669365,0.7664712
0.8307763,1.7067748,1.5842645,0.2663657,0.7695795,1.5922992,1.5051690,-0.1585674,0.0502105,0.2009454,1.1855003,1.2890705,0.8443189,0.9031217,-0.1256784,0.3852348,0.9130653,0.9057464,0.2715543,0.6042227,0.7090929
1.0069480,2.0151577,1.7911741,0.3722783,1.2452351,1.7613302,1.3895912,-0.1607834,-0.0228060,0.4129856,1.1671095,-0.0118738,1.1118387,0.9172745,-0.2737273,0.3360588,0.6677350,0.8511446,0.2015402,0.6749889,0.1788841
1.1071250,1.9201874,1.7650332,0.1952100,0.8585420,1.4769768,1.2854337,-0.3983582,-0.2279637,0.2417135,0.7319714,-0.1870339,0.7632725,0.8733330,-0.4240029,0.1212786,-0.1680921,0.3097472,-0.3039468,-0.0596658,-0.2089953
1.2988187,1.9207582,1.7940227,0.3904234,1.3260629,1.2850863,1.1107080,-0.5259492,-0.2925923,0.1708468,0.3523734,0.1953932,0.3460502,0.5417660,-0.2550502,0.3968882,-0.1210166,0.1134911,-0.1583524,-0.2319055,-0.3694167
1.6627557,2.3933818,1.6782504,0.7414871,1.6683167,1.5026253,1.2430638,-0.1072611,0.1563813,0.2428219,0.0081478,-0.4423091,0.5251586,0.4660482,-0.1481357,0.2107984,0.2535722,-0.0654252,-0.0977726,-0.2761765,-0.5287112
1.6538337,2.2961740,1.5518677,0.6173960,1.5839292,0.9035838,0.9052813,-0.0120434,0.1289143,0.6580259,0.1000559,-0.5887458,0.4481260,0.3634990,-0.2897587,0.3606935,-0.0247257,-0.1876494,0.0117190,-0.1226883,-0.4453928
1.6391947,2.3064988,1.5425053,0.6557595,1.2115513,0.7284119,0.7845629,0.1304738,-0.1651467,0.4160405,0.0805902,-0.3638976,0.1441682,0.1794416,-0.2710522,0.3562137,-0.1749910,-0.2467483,0.2778910,-0.0621142,-0.4700512
1.9259138,2.5981603,1.7346157,0.9915830,1.4030834,0.9138694,0.8086331,0.4457679,0.2306792,0.3287060,-0.0926380,-0.5352225,-0.0084529,0.2754902,0.2082945,0.3846004,-0.2591504,-0.0659317,0.4390884,-0.0160888,-0.2553985
2.0111868,3.0253861,1.9853452,1.0537765,1.7468537,1.6114321,1.2246679,0.5715948,0.6904457,0.5962691,0.1087359,-0.4821877,0.1718246,0.6238551,0.4666725,0.5308834,-0.1862697,0.2498897,0.6119862,0.2533940,-0.0016902
2.1127217,3.0228429,2.1902943,1.2193891,1.5971407,1.6282595,1.4684774,0.6728966,0.7049534,0.9059464,-0.1799743,0.4157963,0.4636292,0.8179622,0.6485474,0.6787500,-0.0526505,0.6329177,0.6503504,0.5108611,0.2492951
2.1429396,2.9994640,2.1232169,1.2916434,1.6310161,1.3966362,1.5811825,0.9169266,0.7654184,0.5929867,0.0726515,0.5924808,0.5116615,0.9551423,0.6804026,0.8139913,0.4838147,0.7198185,0.9117257,0.5179785,0.2975678
2.0543780,3.0543272,2.3041403,1.2733408,1.6283573,1.6571929,1.6943287,1.1710649,0.9459228,0.7998990,0.2682391,-0.0979063,0.8446854,1.0714506,1.0406071,0.7017232,0.5733132,0.8996474,0.9925449,0.8542120,0.4507413
2.0645390,3.0503561,2.2041483,1.1722960,1.6379592,1.6448330,1.6231456,1.1185961,0.8037208,0.8684081,0.2630812,0.3406406,0.8816866,1.2865621,0.8368979,0.7738110,0.4361896,0.9225019,0.9581831,0.9362185,0.3780316
2.1763020,2.8770151,2.4502048,1.0813680,1.5503279,1.6481572,1.5515332,0.7026354,0.7753349,0.6321946,0.0387407,0.5789983,0.7981945,1.0054559,0.5386752,0.3043638,0.1769654,0.7527415,0.6086672,0.7078688,0.2132432
2.1910789,3.4100232,2.6439214,1.2993025,1.6471189,1.3115586,1.4343140,0.7427211,0.4461012,0.4505799,0.0899243,-0.0535892,0.4105355,0.8949357,0.5026088,0.1850975,0.0841941,0.6494187,0.5261781,0.4624694,0.2018956
2.0356808,3.0213900,2.1573570,1.0563765,1.0814955,1.2168936,1.2058325,0.6811106,0.2748210,0.1466621,0.1018398,-0.2727606,0.5113788,0.5867699,0.0502739,0.3881219,-0.1150843,0.5444267,0.1623916,0.1377174,0.2487161
1.9030924,2.0799954,2.1544218,0.7963067,1.2723994,0.9688113,0.9292688,0.1054511,-0.0054159,0.4968287,0.2926387,0.4290389,0.3858532,0.3318216,-0.5507799,0.4257009,-0.1384708,0.3238818,-0.4545315,0.0615279,-0.1313005
1.7003971,1.7249238,1.5848373,0.5935370,0.9371740,1.1790955,0.5580097,-0.2396064,-0.2782777,-0.0641394,0.3584191,0.2470009,-0.0679051,0.0941825,-0.9575371,-0.0614460,0.1950754,0.0388069,-0.5399582,-0.1393060,-0.4380274
1.5928774,1.8461733,1.0886545,0.3866904,0.8096018,0.9819273,0.2563955,-0.4510178,-0.4500686,-0.2710811,0.4287593,-0.2113880,-0.4513838,-0.3356995,-1.3430657,-0.1167321,-0.5715675,-0.3766803,-0.9495406,-0.3916744,-0.7985279
1.6798207,1.6596625,1.0019584,0.3470895,1.2631546,0.7988136,0.3242721,-0.8291214,-0.7035238,-0.4701601,-0.0402771,-0.2481302,-0.4066805,-0.2665354,-1.3768089,-0.6655421,-0.6987069,-0.7878779,-1.3537320,-0.9148512,-1.1473764
1.9631196,1.8237381,1.0031106,0.5818779,1.5168056,0.4325333,0.0715665,-0.7830842,-0.7920263,-0.4227719,-0.2216665,-0.7861779,-0.6735307,-0.4907218,-1.4563488,-0.6418581,-1.0150725,-0.7542593,-1.2039164,-1.1828822,-1.5839531
1.8607464,1.8228531,1.1339796,0.4623444,1.4529324,0.2550402,-0.0920239,-0.6963292,-0.6512156,-0.5155267,-0.1204757,-1.6543812,-0.7159002,-1.2607055,-1.7972264,-0.8490694,-1.2868472,-1.1251599,-1.4825623,-1.5438012,-1.6637427
2.0585330,1.8125829,1.0861506,0.3882414,1.1998069,0.1846589,-0.2096272,-0.9132596,-0.7533775,-0.5759851,-0.4132926,-2.0459335,-0.9038766,-1.3426658,-1.9333489,-1.1653608,-1.6543010,-1.4027619,-1.8050888,-1.7083013,-2.1638243
1.9855961,1.9613944,0.8724694,0.4431059,1.2402166,0.0176568,-0.4438594,-1.1740754,-1.1023490,-0.5915135,-0.7311805,-1.6998492,-1.5246990,-1.5757029,-1.9329932,-1.3260815,-1.7750185,-1.4104371,-1.5956216,-1.7747084,-1.9558166
1.9956261,2.4575102,1.0472869,0.8285240,1.6590559,0.2173986,-0.4637239,-0.9865398,-0.9392284,-0.7633883,-0.9000280,-2.1152585,-1.3890915,-1.6615467,-1.3254693,-1.3165356,-1.9590445,-1.2312500,-1.3387287,-1.7927804,-1.9176491
2.4465721,2.9878094,1.4552737,0.8242744,1.4947594,0.3447130,-0.0625408,-0.4891894,-0.3480469,-0.7050650,-0.9446470,-2.5672274,-1.1939973,-1.4165262,-1.1489366,-1.2284535,-1.9146968,-0.9931647,-1.2454761,-1.8604586,-1.9833548
2.3741202,2.8252470,1.5200410,0.9239162,1.4235815,0.6172830,0.0456347,-0.3346996,-0.3345447,-0.5354429,-0.8424475,-1.4847199,-1.1389595,-1.1827813,-0.7684740,-0.9775585,-1.6201907,-0.8075464,-0.6797397,-1.5686612,-1.5286714
2.5228317,3.0933383,1.6689265,1.2117416,1.6293578,0.7283947,0.2012537,0.1013977,-0.1058854,-0.5580640,-0.4493761,-1.5947329,-1.1237264,-0.8420280,-0.1808798,-0.8458067,-1.3939092,-0.6195038,-0.4005210,-1.5043588,-1.2708734
2.7902982,3.4305851,2.2780781,1.4209912,2.2820222,1.0141485,0.7703616,0.5067694,0.3175681,-0.3607597,-0.6435567,-2.0772779,-0.8495452,-0.4750579,0.2235542,-0.6412322,-1.5016267,-0.5755273,-0.2194982,-1.3326283,-1.2174076
2.6839228,3.1839917,2.5674837,1.3811544,1.8601589,0.9039275,0.8129729,0.5819774,0.3532898,0.0927164,-0.8077199,-1.5786594,-0.3456848,0.0752853,0.3130881,-0.3930493,-1.3798060,-0.3372304,0.0492857,-0.9727373,-1.0066403
2.7116189,3.6348853,2.6263900,1.5095693,1.7457592,0.9859514,1.0089368,0.6660793,0.4716991,0.1621419,-0.5115986,-1.1783531,-0.1339636,0.3606342,0.6902528,-0.2502117,-1.1039089,-0.0438661,0.2270222,-1.0580565,-0.8348466
2.9257903,3.9173520,2.9717991,1.6813294,1.8263568,1.8054576,1.3666592,0.9153357,0.5743858,0.0483998,-0.2710241,-1.3887094,0.2654184,0.3902917,0.8319698,-0.3516236,-1.0241312,-0.0008311,0.0245873,-1.1232227,-0.8670327
3.0911629,3.7750268,3.1340406,1.6495948,1.6961237,2.0133412,1.5737851,1.0045092,0.6816123,0.2994657,-0.2467500,-0.8305032,0.6306253,0.5684961,0.4044651,-0.3340613,-1.0407805,0.2028104,-0.0813107,-0.9559144,-0.6124092
2.9264817,3.4510894,2.7451003,1.5077050,1.4845003,1.6317389,1.5046695,0.7298460,0.5632855,0.2178215,-0.2908563,-0.3676526,0.6054476,0.7278281,0.1654484,-0.1946103,-0.5970871,0.4711540,-0.2694147,-0.6689695,-0.7532514
2.8454156,3.2180765,2.5975533,1.3658972,1.4393721,1.5064304,1.2939696,0.5879292,0.2281387,-0.1949377,-0.2447422,-0.7743233,0.3420922,0.6924724,-0.1457904,-0.5449566,-0.8649421,0.1693504,-0.5377123,-0.9484560,-0.7789616
2.8594859,3.3534272,2.8066752,1.2898718,1.3519937,1.8110836,1.0466232,0.3948831,0.1510355,-0.0735336,-0.5430061,-1.3226749,0.2199924,0.3774553,-0.6241626,-0.9305254,-1.1828254,-0.2372632,-0.8153103,-1.4906290,-1.3320367
2.5634573,3.1212950,2.5880780,0.9891893,1.5378585,1.4607679,0.6139851,-0.0225358,-0.1946178,-0.1450693,-0.7412528,-1.0804689,-0.3359846,-0.1840695,-1.0028108,-1.2282767,-1.8855141,-0.8858390,-1.2186739,-1.7986969,-1.8314871
2.4171243,2.8047547,1.7052357,0.8388585,1.3869762,0.8469250,-0.1239582,-0.1791046,-0.6614833,-0.6432097,-0.9746881,-2.0535653,-1.1419597,-0.8806283,-1.5049940,-1.6483558,-2.3207345,-1.6750473,-1.7004507,-2.7019920,-2.4367838
2.4112453,2.7137327,1.4471152,0.7222463,1.5157675,1.0107510,-0.4460188,-0.4639029,-0.7954625,-0.9241483,-1.0254061,-2.6896358,-1.4982911,-1.5394748,-1.7000580,-2.2519076,-2.4204321,-1.7478640,-1.9421233,-2.8038311,-2.7337368
2.4489079,2.8381600,1.2579536,0.8055726,1.4369096,0.5254630,-0.3743361,-0.5404952,-0.5592321,-0.6092772,-1.0825373,-2.4999647,-1.7240191,-1.8253587,-1.4839793,-2.2480934,-2.4973955,-1.6699321,-1.8444742,-2.4069240,-2.3455687
2.3981612,2.8040538,1.0554557,0.8660890,1.4302140,0.3779116,-0.5223720,-0.3983869,-0.5137540,-0.3715436,-1.1105092,-2.5190210,-1.9672555,-1.8685873,-1.1484077,-1.7804091,-2.2696719,-1.3131107,-1.6623566,-2.2354524,-2.0195816
2.3518014,2.8167958,1.0012939,0.7762486,1.4260182,0.4562961,-0.5356561,-0.3921366,-0.3068734,-0.3639499,-1.2907476,-2.7038560,-1.9234626,-1.7999345,-0.9204682,-1.4191431,-2.3674169,-1.3512083,-1.1970782,-2.1639504,-1.9686229
2.5782948,2.9970577,1.1019912,1.2224067,1.5541487,0.3661602,-0.3398682,-0.2354830,0.0059527,-0.3676471,-1.1608450,-2.2624373,-1.5655767,-1.4128668,-0.4023778,-1.0817977,-2.0175264,-1.0941280,-0.8438318,-1.7599990,-1.4975678
2.8078239,2.8775065,1.4235026,1.5319178,1.3101472,0.3511860,0.0076551,0.3428237,0.3752674,-0.2160818,-0.7254919,-1.6864022,-1.2123516,-1.1285840,0.1301233,-0.8597851,-1.9516631,-0.5223285,-0.4508350,-1.5552454,-1.2203841
2.7698290,2.7523112,1.6264493,1.5067737,1.6081787,0.3170839,0.1271617,0.7026184,0.6821495,0.0953769,-0.7831135,-1.5316155,-0.9250763,-0.7081463,0.6609195,-0.6467778,-1.2406402,-0.1857747,0.2004279,-1.2688048,-0.8654276
2.6361270,3.1463737,1.5517656,1.4896555,1.5023974,0.9951056,0.5521405,0.8009461,0.7047850,0.0948904,-0.2759324,-0.9484062,-0.3197029,-0.3166363,1.0541493,-0.2146440,-0.6963726,0.1920724,0.5747716,-0.5431836,-0.4551858
2.8172121,2.8101094,1.9354435,1.9869922,1.7064302,1.1110318,1.0682213,1.3208059,1.1771792,0.6216430,0.0719949,0.3124179,0.1481668,0.1024650,1.4829690,0.3644955,-0.5550631,0.8631358,0.7127948,-0.1343851,0.1152373
2.8944016,2.8857572,2.3300896,2.1107299,1.7163497,1.5488846,1.5279821,1.8300264,1.5279104,0.8598961,0.2476815,0.6162308,0.8278969,0.6816787,1.5364732,0.5542216,0.0624972,1.4455339,1.0356575,-0.0161152,0.4520280
2.7893939,2.8064506,2.6746099,1.8022904,1.8092996,1.8388939,1.7046900,1.8210229,1.5173477,1.4272788,0.5075781,0.1606646,1.1810132,1.3365077,1.6017495,0.7621399,0.3724472,1.5397221,0.9256204,0.1330160,0.5271637
2.5600605,2.8654289,2.7319529,1.7262856,1.4923958,2.0230918,1.7865089,1.5249599,1.2975464,1.0491028,0.5689538,1.1245240,1.0562624,1.4079106,1.2876395,0.3579548,0.2026475,1.3954687,0.4705470,-0.1147353,0.2062332
2.8401184,2.8860040,2.9184344,1.8068210,1.3254054,1.9851031,1.8975918,1.4331588,1.0709012,0.4984634,0.3731371,1.2726887,0.9574059,1.2993014,0.9437473,0.2629662,0.1419598,1.5429665,0.3788228,-0.1278151,0.5895369
3.1828718,3.0151796,3.0576301,1.8300343,1.7369798,2.1920683,2.1064250,1.5790844,0.8605313,0.4584531,0.6761338,0.9177659,1.5259519,1.4982256,0.7877472,0.5088482,0.6924561,1.5968566,0.4685189,0.1686140,0.7545586
3.0928626,2.6340737,3.0620086,1.6278607,1.6653733,2.8203270,1.9999082,1.2406327,1.2572062,0.7595358,0.6185625,1.3326331,1.5102956,1.6479400,0.7667778,0.6687772,0.7118301,1.5507132,0.5732198,0.2268786,0.5553516
2.8267829,2.5908501,2.6658485,1.3776602,1.7598946,2.6266503,1.6530488,0.8936985,1.1541356,1.0662667,0.7899293,1.5319542,1.4018738,1.4283338,0.1769867,0.4204285,0.6304132,1.4428489,0.2815551,0.2867177,0.3059043
2.4636762,2.3530686,1.9604281,1.0197434,1.4776175,1.7753415,1.1460277,0.5751550,0.2686932,0.6428356,0.5440583,0.5539798,0.9236022,0.7656160,-0.9451184,-0.3283948,-0.1637339,0.5772613,-0.1961840,-0.3960645,-0.3547156
2.1441975,1.7560772,1.5252608,0.7944559,1.2176185,1.1135113,0.5052680,-0.3957545,-0.3368444,-0.0694007,0.0546193,-0.4734783,-0.0119239,-0.0093618,-1.5892963,-0.9113649,-1.4664198,-0.5363758,-1.3003416,-1.4311019,-1.4851069
2.1510541,1.9808282,1.1952356,0.6698998,1.2352811,0.8283166,0.0658228,-0.7183741,-0.6906613,-0.6553821,-0.2957752,-1.1933322,-0.9295697,-0.6416604,-1.9069029,-1.5965929,-1.9237882,-0.7794917,-1.6923195,-2.0637710,-1.7876256
1.9987667,2.2223833,0.8583138,0.6359494,1.2577229,0.2628169,-0.0411928,-0.6918985,-0.5706384,-0.6474977,-0.6965111,-1.5134634,-1.0713699,-1.0085540,-1.5411843,-1.3902999,-1.7990464,-0.6840427,-1.3082187,-1.9890366,-1.5781108
2.0310550,2.8569472,0.7511355,0.9626476,1.5473816,0.9905247,-0.0653581,-0.3690344,-0.2667091,-0.8752186,-0.8620476,-2.4556124,-1.3191260,-0.8292791,-1.0155309,-1.0764011,-1.9589331,-0.5315338,-1.0492098,-1.5460583,-1.6338912
2.0832634,2.4093215,0.6023796,0.9969025,1.3670840,0.7155702,-0.0431636,-0.0310405,0.2340481,-0.5680016,-1.0558282,-2.3774152,-1.0594144,-0.7316856,-0.6154836,-0.9474536,-1.4595537,-0.1260591,-0.8680830,-1.4742262,-1.3851715
2.0258410,2.1555874,0.7711711,1.2170216,1.5324115,0.5166922,0.1896498,0.2709764,0.4749573,0.0302000,-0.8019600,-1.6024433,-0.7264361,-0.3472286,0.1870423,-0.5757801,-1.1003414,0.3120473,-0.3219449,-1.2131848,-0.8310049
2.1380632,2.3525176,0.9141916,1.4148203,1.5387862,0.4923109,0.5413731,0.8360192,0.5964987,-0.0659697,-0.6688519,-1.3990290,-0.3023302,-0.2353840,0.6175026,-0.3070850,-0.4037918,0.7093990,0.3890287,-0.6843488,-0.1196041
2.1894014,2.3194988,1.2885013,1.6007216,1.5102506,0.9090418,0.8231739,1.2092335,0.9778857,0.3908951,-0.3067942,-0.5033021,0.1555426,0.4559065,1.1033286,0.0795048,-0.2099634,0.8976159,0.3786151,-0.4696150,0.1322802
1.8438779,1.8872817,1.1808472,1.6807755,1.5462116,0.5378386,1.0069846,1.4462671,1.1426994,0.5946593,-0.2358931,0.2126874,0.2947789,0.7186427,1.1329929,0.1318465,0.0987714,1.2614484,0.5988626,-0.2642672,0.2201381
1.9554791,1.7967826,1.5847784,1.8247597,1.5564762,1.0155183,1.2738619,1.7973077,1.3083109,0.8758776,-0.1579546,-0.2485792,0.3200817,1.0013094,1.5848937,0.4022020,0.4360285,1.5510224,1.1081531,-0.1363056,0.4357669
2.4044635,2.2002072,1.9193915,2.0883327,1.9707071,1.7228447,1.7479150,2.0730000,1.7972441,0.9876128,0.0674517,0.2240554,1.0937535,1.3955153,2.1792269,1.0786057,0.9836895,2.0656946,1.3875346,0.2275709,1.0092087
2.5159025,2.2418478,2.4046474,2.2205241,2.2145712,1.7734984,2.3373621,2.2865117,2.4264386,1.4073744,0.2105446,1.2105271,1.8213307,2.0065024,2.4674883,1.6739669,1.2913253,2.3439579,1.7586786,0.8904679,1.4183880
2.4962556,2.1006706,2.1578286,2.3197105,2.2080669,1.9701524,2.3042696,2.7790937,2.4477158,1.3546025,0.6076712,1.4743121,2.1360409,2.1338291,2.6969666,1.8793561,1.4792544,2.3260369,2.0810146,0.7414449,1.4914685
2.6670406,2.0624442,1.8833364,2.4529216,2.1409919,2.6046970,2.1079581,2.8163469,2.3837860,1.5182962,0.8867696,1.1340443,1.9768343,2.3129358,2.6061244,1.6394559,1.2013602,2.2784760,2.1666892,0.8862975,1.3947963
2.6319275,1.8335048,2.0628316,2.5777349,2.2300410,2.1972966,2.1493061,2.7600653,2.8064184,1.7929018,0.7989206,1.5867189,1.9450467,2.3464396,2.6842096,1.5987265,1.2120155,2.3167181,2.0890784,1.0717633,1.4122671
2.4662793,1.4010750,1.5963643,2.3463213,1.7519653,1.6648413,1.8508439,2.6838076,2.7239535,1.5789213,0.7482829,1.6559619,1.6755785,2.0136521,2.6580200,1.4634993,1.7442065,2.2624841,1.9700174,1.0802137,1.4955418
2.1920867,1.2983334,1.5242656,2.1787610,1.6539149,2.0035918,1.7143190,2.6721096,2.3095269,1.8330286,0.9501663,1.1769531,1.6689434,2.0970521,2.3828852,1.5351290,2.0568578,2.1240149,1.7954057,1.3136127,1.5722491
2.0754600,1.3698684,1.3234160,2.1931968,1.8629122,2.2079675,1.4665109,2.6630511,2.4621799,1.8903832,1.0742662,1.7718964,1.7518348,2.1678395,2.0177641,1.5105695,1.9110088,1.9900538,1.5571154,1.4818212,1.6658577
1.7563028,0.7743629,1.1702521,1.9815124,1.7570068,1.7121241,1.2624164,2.1169930,1.9777762,1.2907429,1.0369151,2.3349650,1.3990163,1.6789453,1.5526762,1.5116942,1.9751377,2.0714903,1.2941344,1.4304899,1.6302943
1.7008017,0.8688217,1.1625675,1.8324207,1.3233389,1.6412030,1.1064415,1.7884450,1.6696203,1.1692694,1.3690596,1.5672319,1.4273896,1.3581234,1.2991748,1.3797140,1.7222077,2.1260009,1.2143078,1.2629358,1.6721419
1.5758418,0.7238618,1.0367955,1.6063784,1.3026266,1.4857099,1.1039412,1.5077204,1.4690909,1.1988742,1.4764327,1.4133348,1.4732331,1.2979817,1.1778067,1.5759187,1.7931557,2.0848081,1.3795310,1.4863085,1.7640711
1.7722644,0.8822108,1.1044077,1.8253489,1.6165788,1.3491447,1.1468171,1.6110241,1.8087747,1.2647821,1.1795026,2.3121016,1.5044143,1.3349046,1.4241910,1.9766634,1.8720410,2.4369631,1.4582338,2.0158813,2.2738886
2.0223498,0.7616549,1.1420939,2.1494477,1.9163359,1.2360523,1.0992898,1.9720997,2.3002272,1.9773927,1.4397116,1.9433908,1.8487622,1.4903090,2.0450249,2.4620438,2.4919274,2.6287847,2.0685561,2.3422801,2.7417231
2.0348313,0.2956494,0.7414798,2.2194912,2.2483747,1.4334131,1.0959951,2.2216029,2.7971263,2.4470191,2.1207883,1.2568500,1.7036761,1.4022570,2.2409809,2.8551037,2.9742291,2.4889522,2.5517056,2.6013463,2.7807848
2.0135171,0.4537741,0.6020315,2.1946747,2.2992840,1.3510021,0.9282715,2.4021504,3.1316202,2.5163324,2.1025345,2.0084772,1.6212231,1.4001790,2.6962404,3.1683125,2.7787862,2.5457118,2.8738024,2.7938199,2.7438540
1.9517325,0.4272911,0.2897590,2.3091996,2.4390433,0.9987733,0.6892588,2.6709046,3.1584849,2.8662236,1.9309649,1.6739416,1.2888073,1.3613932,3.0261462,3.2870333,2.1511712,2.3419218,3.0399668,2.6835854,2.3380826
1.9485189,0.8300492,0.0387137,2.2498746,2.3139069,0.7074720,0.6620433,2.8779325,3.0145745,2.5386443,1.3426747,1.0265296,1.1338743,1.1353010,2.7223299,2.7079735,1.7069727,1.9218289,2.7879784,2.4641545,1.7734438
1.7985137,0.8797596,0.0062321,2.0355690,1.9577878,0.4929214,0.5835678,2.6545560,2.6920819,2.1342726,0.8920281,0.5216353,0.6650298,0.8182895,2.2722130,1.7723130,1.2425208,1.5307534,2.5114369,1.6840016,1.3863945
1.5906821,0.8813041,-0.1598735,1.8138424,1.9031941,0.1889513,0.2950293,2.2653258,2.2032394,1.7344425,0.4070513,0.4706322,0.3049122,0.7262472,2.2660673,1.2058331,0.3648489,1.2917453,2.1176887,1.2025974,0.9287403
1.3170656,1.2465626,-0.3224697,1.6230353,1.5011780,0.0249392,0.0563015,2.1586347,1.9459494,1.1111172,-0.0903111,-0.0238368,-0.0129867,0.3923652,1.8181031,0.9229783,-0.2652259,0.8306679,1.7301967,0.5164399,0.4499426
1.1918944,1.1285037,-0.2330669,1.3763286,1.1331323,0.1796991,-0.0808696,1.9647331,1.6526746,0.5793939,-0.2175845,-0.1293226,-0.1283761,0.0365832,1.5310708,0.2027559,-0.0062977,0.6814020,1.1244220,0.0195593,0.2178976
0.9443156,0.7793083,-0.4259785,1.2445263,0.9905480,-0.0313948,-0.0885316,1.3272152,1.2216982,0.2926303,-0.1444390,-0.0514852,-0.3039831,0.1213732,1.2367572,-0.1262242,-0.2235014,0.6225269,0.9038169,-0.3086503,-0.0129267
0.8868811,0.7941662,-0.6323305,1.3022606,1.1952236,-0.0459846,0.1377011,1.4512086,1.0295457,0.1393254,0.0327866,-0.1295481,-0.1678914,-0.0212984,0.9999043,-0.0699969,-0.0186499,0.6705808,0.7037616,-0.2563021,0.2134326
0.9546287,0.9794772,-0.4469028,1.4352487,1.2886406,0.1622967,0.2353982,1.6280293,1.3732805,-0.1085925,0.0930536,-0.7348734,0.1496756,-0.0140739,1.3450339,0.4667169,-0.1401567,0.9928779,0.4851920,0.0442884,0.6219902
1.1419342,0.8286539,-0.4628249,1.5562050,1.4368695,0.4272180,0.5200735,1.5920125,1.4329600,0.6717998,0.2600097,0.1493018,0.6309714,0.1273540,1.2451563,0.6234131,0.3695404,1.2492274,0.6062511,0.3429092,0.7233694
1.2723100,1.0174121,-0.0779641,1.5697787,1.6854372,0.7191578,0.7940977,1.6172591,1.7057395,1.0438361,0.2119375,0.7502595,0.6842142,0.5399255,1.1775411,0.9169632,0.7351461,1.5816045,0.9343313,0.6648462,0.9729608
1.1092782,1.1975577,0.0393119,1.6324579,1.6335049,0.9618173,0.7904854,1.8890835,1.7756517,1.1314949,0.1189850,0.0839281,0.9460818,0.6131810,1.2336833,0.9379157,0.8688198,1.3852073,1.0327296,0.5225009,0.9209024
1.1569501,0.7781190,-0.0151209,1.5589720,1.5224593,1.1221420,0.5950053,1.5717976,1.3780351,1.0901228,0.2777516,0.5598792,0.8161476,0.6488799,0.7668800,0.5892379,0.3411418,1.0824312,0.8014928,0.3928595,0.8421873
1.0341130,0.3621283,-0.2658998,1.4408308,1.4661567,0.9526894,0.2822183,1.2514472,1.1086990,0.7360660,0.2410354,0.7242498,0.9290003,0.6490281,0.2670690,0.4342521,0.2640242,0.9618691,0.5760975,0.2866826,0.7681406
0.9558821,0.1288891,-0.4953866,1.3143878,1.3854477,0.7740921,0.2021495,1.0432293,0.9519817,0.6984881,0.4382804,-0.0696111,0.4768990,0.4706396,0.4296190,0.5187953,0.4974903,1.0987308,0.8379474,0.2188885,0.8675913
1.0361586,-0.0276071,-0.7535260,1.1660707,1.3983412,0.7955825,0.1823426,1.1583474,1.2806451,1.1482852,0.7007051,0.2682458,0.5645700,0.3961648,0.9807025,0.9949976,0.7940239,1.1577696,0.9856985,0.6034457,1.2860541
0.9841457,-0.5562834,-0.7915782,1.3600491,1.5167308,0.5619732,0.2154699,1.4121708,1.6538783,1.3977699,0.8260556,0.8314562,0.5463379,0.6074265,0.8731180,1.5159932,0.8520260,1.2817549,1.2882779,0.9081174,1.3948522
1.0364332,0.0151694,-0.8795186,1.5784992,1.7296494,0.2974453,0.2864758,1.6646312,1.7966694,1.4730123,0.8532633,0.0583890,0.5394315,0.7284913,1.2762648,1.7291031,1.2719526,1.7289554,1.5336987,1.2427094,1.7086728
1.0742961,0.0042676,-0.5631975,1.6894112,1.8196613,0.7331016,0.4749907,1.9538980,2.1044812,1.7235261,1.2321240,0.3744493,0.7553905,0.9018227,1.9874929,2.1250620,2.0631371,1.9839749,2.1654119,1.9430652,2.0674419
1.2036914,0.0664920,-0.0961731,1.8364440,1.8153248,1.2378343,1.0282198,2.3312860,2.5959826,2.4750698,1.1855881,1.5575800,1.2740160,1.4055485,2.3380854,2.6333318,2.1050715,2.4790175,2.5332897,2.3504188,2.5082211
1.2143052,0.5937888,0.4130922,1.8653626,1.6397967,1.0228602,1.3923618,2.5243366,2.6293752,2.2925484,1.3898078,2.1824205,1.8462052,1.9674112,2.6862311,2.7665648,2.4284070,2.8012431,2.9546082,2.6123312,2.8034327
1.1951305,0.6515945,0.3639431,1.7287129,1.5921197,1.4414154,1.4225415,2.7330737,2.5233893,2.2245114,1.6457715,1.7894325,2.1187997,2.2134254,2.6275856,2.5425277,2.6324940,3.0377614,2.8596444,2.4311733,3.1396639
1.0941851,0.3827917,0.3313820,1.7047950,1.4843887,1.5360672,1.2513412,2.5354481,2.2172318,2.1543360,1.6188831,1.9599149,2.2557805,2.1729820,2.5057609,2.1549590,2.4436624,2.8677933,2.5402570,2.0950224,2.9305916
0.9355605,0.2188832,0.0999996,1.7762283,1.3432435,1.0298257,1.0291958,2.4296384,2.3888228,1.5826323,1.4263113,2.1639183,1.5080687,1.8403724,2.0837746,1.9814851,1.6926025,2.5111091,2.0778775,1.5219376,2.5696824
0.9988160,0.3824087,-0.0987653,1.8573321,0.9723656,1.0316467,0.8825179,2.2420173,1.8696276,1.1930790,1.0230505,1.4157425,1.5023268,1.6107762,2.0238736,1.7533286,1.5283688,2.4664831,1.9138589,1.3645058,2.5777164
1.1954520,0.4120972,-0.1488901,1.7754391,1.5328830,1.3497165,0.8481950,2.4238985,2.1073210,1.5198401,0.9707891,1.1223526,1.4508361,1.5475544,2.2238977,1.6377741,1.4892386,2.5035970,1.8446339,1.6225767,2.8011742
1.4176661,0.6244690,0.1269770,1.8704572,2.1147950,1.2001936,1.0915297,2.2455595,2.3422184,1.7038643,0.9725149,2.1051006,1.5707310,1.5546408,2.5416157,2.3387337,2.1912918,2.7962430,2.2700484,2.0845318,3.3301134
1.6177156,0.6798393,0.2902785,2.2598131,2.0276530,1.8370042,1.6032125,2.6488786,2.7791471,2.2995927,1.5888364,2.1889615,2.2314811,1.9351614,3.0571258,3.2921107,3.4334059,3.2369342,2.9188089,2.8963270,3.8840415
1.8519396,1.0096604,0.4685562,2.2992148,2.2043417,2.2007172,1.9509901,3.1383498,3.3590486,2.7053790,2.1622488,2.8183043,2.8368249,2.4677715,3.4687266,3.9126840,4.1216121,3.4904821,3.4683661,3.7970512,4.4532356
1.7504976,0.9750299,0.8630624,2.3116899,2.2771280,2.2173867,1.9447573,3.1714799,3.8327854,3.2121253,2.6000638,3.7091193,2.9470491,2.6737213,3.7374606,4.3148913,4.1431146,3.6905665,3.7637851,4.1439805,4.6141472
1.6573768,0.6189828,0.5386685,2.3480260,1.6839156,1.9409406,1.8961728,3.2727735,3.7189620,3.1557496,2.4247906,3.5451233,2.7445128,2.8339589,3.5692415,4.1867599,3.9212058,4.0052528,3.8679600,4.2740817,4.6105509
1.4657875,0.3019246,0.3232583,2.1832769,1.5119010,1.9608661,1.4788569,3.1048810,3.4968655,2.8935409,2.4097428,3.0568943,2.9835987,2.5168018,2.9881494,3.4548550,3.5584469,3.1151516,3.5225017,3.9505973,4.0813026
1.1164871,-0.0545642,0.0045402,1.6520845,1.2993829,2.1168315,0.8369721,2.4738498,2.6261911,2.1161146,2.0553429,2.5709751,2.4109964,1.7490875,2.3020649,2.5860944,2.9654965,2.4291642,2.8506665,3.1358781,3.4152834
0.6126080,-0.6691272,-0.3713394,1.2403977,0.6009394,1.4106185,0.6844459,1.7909729,1.9650835,1.3965130,1.6243646,2.3685789,1.6991901,1.3163053,1.8816804,1.9663163,2.3840625,2.0931487,2.1161196,2.4114861,2.6337600
0.5033033,-0.9664614,-0.8334808,1.1891744,0.4633933,1.1940128,0.3912836,1.4192874,1.5714821,1.3466712,1.4660877,1.1509660,1.3070432,1.0673497,1.4509940,1.7777861,1.8422107,1.4330858,1.5303769,1.7554204,1.8464675
0.5306040,-0.9890265,-0.7460097,1.1968565,0.6618445,0.8357853,0.2211161,1.3148533,1.4388390,1.0652848,0.8932891,0.7059166,1.0935478,0.6405571,1.2458967,1.1522719,1.0667466,1.1054143,1.2818630,1.1755568,1.4946328
0.6414976,-0.7907408,-0.7256069,1.1690161,0.6861857,0.3860162,0.0766843,1.0414677,1.3569314,0.8608492,0.4349137,0.4681574,0.6678301,0.5290127,0.8257404,0.7777016,0.3625022,1.0410705,0.8009219,0.6590047,1.2715151
0.4621089,-0.7848016,-1.2849625,1.1081997,0.6898139,-0.3202378,-0.0551550,1.0594825,1.0802796,0.4822915,0.0977832,-0.0748840,0.2221149,0.1397663,1.0011470,0.9713062,0.3206775,0.7800212,0.9896769,0.2612787,1.0118989
0.5253995,-0.4374056,-1.3947618,1.0788028,1.0353676,-0.0383818,-0.1170060,1.2518885,1.0145302,0.6227666,0.1911447,-0.5799595,0.1143467,-0.3250337,1.0010381,0.7811534,0.0212103,0.6404828,0.9868770,0.5371602,1.1018553
0.5551962,-0.6195994,-1.2194049,1.0284352,1.0037317,-0.1860916,-0.2715544,1.1727934,1.0359443,0.8068221,0.2847368,-0.3772899,0.0428129,-0.1126552,1.3876157,1.0951446,0.2815228,0.7340809,1.1817507,0.8174937,1.0610291
0.6036173,-0.4912357,-1.0545908,1.3206202,0.9506926,-0.2199450,0.0455702,1.4005578,1.3720959,0.9693418,0.3514624,0.0041947,0.3007891,0.2469187,2.0181000,1.4132996,0.6475114,1.0141666,1.5874401,1.0513859,1.3792161
0.7260420,-0.2375341,-0.8916790,1.6507841,1.0998530,0.0899751,0.1278506,2.0935719,1.7421755,0.8907630,0.6070088,-0.5039238,0.1819860,0.4048179,2.2446790,1.4728889,0.5928655,1.0967469,1.9619853,1.1687027,1.3478472
0.6879860,-0.1633981,-0.6135739,1.6536309,1.0213034,-0.0480576,0.3948887,2.0850811,1.9370049,0.8925618,0.5590983,0.0294342,0.3849530,0.6815566,2.3446562,1.4931172,0.5223447,1.3315663,2.0630715,1.2580842,1.4515883
0.5915282,-0.3962603,-0.3645561,1.5453107,0.5093902,0.2959989,0.6410978,1.9629560,1.7039005,0.8571098,0.3815939,0.8133170,0.8463200,0.9548385,2.2862039,1.4179611,0.8140308,1.5910578,2.1358638,1.2763699,1.6934056
0.4951681,-0.2645243,0.0511535,1.4838153,0.2907658,0.3944583,0.8658938,1.7566495,1.3231435,0.5624220,0.7836083,0.9442019,0.8853408,0.9752606,1.8904181,1.4944850,1.4253371,1.6191919,1.6936587,1.2986581,1.7169850
0.2919190,-0.3676710,0.0463956,1.1735079,0.4149565,0.7532385,0.9188165,1.6580241,1.4043832,0.5818583,1.0903299,0.8761418,1.0673881,1.2222801,1.6467444,1.3596433,1.3826587,1.5774932,1.6394744,1.2676909,1.6266375
0.0791918,-0.7138690,-0.5245102,0.8540136,0.2481503,0.7745759,0.6822935,1.0115095,1.1138537,0.6321573,1.0451623,1.4454162,1.0737087,1.2272798,1.2288548,1.1282400,0.8536512,1.1228704,1.3766222,0.9372631,1.2889944
-0.1728413,-0.7441353,-0.6759313,0.8093065,0.3543542,0.0364885,0.4299048,0.8065404,0.6421369,0.3940895,0.8857486,0.7643206,0.5082639,0.8256953,0.7652857,0.3664405,0.7039187,0.9804609,0.8968791,0.4630407,0.9776043
-0.0823666,-0.4391173,-0.7577636,0.5824749,-0.0599532,0.3173956,0.3223580,0.6862059,0.5755445,0.2680036,0.6289694,0.1172793,0.3132253,0.3855613,0.5901281,0.3099647,0.2207330,0.6672782,0.3352978,-0.1795003,0.7629515
-0.1587038,-0.4328471,-0.6717572,0.4081121,0.1748515,0.1559828,0.2744923,0.4692015,0.4413925,0.2767648,0.4760679,0.4433773,0.3440844,0.2873316,0.5005764,0.5896274,0.1772195,0.7274211,0.1524970,-0.0110963,0.6282043
-0.1952995,-0.5239574,-0.5686989,0.3271849,0.4169879,0.0652930,0.2906460,0.2645320,0.2440962,-0.0433184,0.3512605,0.3849220,0.4438412,0.1907519,0.6096018,0.5759352,0.4678943,0.8558555,0.2971548,-0.0053570,0.5224230
-0.0482760,-0.5075809,-0.4652837,0.5371819,0.3514517,0.4522707,0.2840370,0.4908804,0.4418267,0.2478134,0.5418289,-0.1587781,0.4424738,0.2769363,0.7874874,0.5053947,0.8964654,0.7578211,0.5279114,-0.0263019,0.7055901
0.2492510,-0.2923799,-0.3075526,0.7354817,0.7941111,0.4408639,0.4031406,0.7220780,0.8253421,0.4690208,0.2320900,0.2994289,0.3165542,0.3661145,1.0110027,0.6514748,0.2577065,0.8336899,0.7593280,0.2786444,0.7330980
0.3146719,0.1463968,-0.1816893,0.8825974,0.8610317,0.0124638,0.5445245,0.8167462,0.9822780,0.5878097,0.2773254,0.5481539,0.3371395,0.6237065,1.1548297,0.7015101,0.1711801,1.0118303,1.1916459,0.4150505,0.9035736
0.5535266,0.5138195,-0.1446391,0.9524148,0.7204869,0.6798355,0.5573239,1.1168289,1.1435444,0.6940425,0.4942153,0.3899739,0.5721006,0.7021458,1.5389692,0.8596289,0.7394969,1.1276346,1.3685895,0.7652895,1.2195550
0.6895837,0.6638445,0.1118784,1.2660512,1.0663240,1.0403438,0.9112377,1.5773575,1.4587172,0.9980199,0.8082291,0.3516570,0.8286995,1.1988002,2.1197193,1.3894079,1.1375989,1.6794333,1.6886944,1.1307660,1.4539105
0.7303590,0.4622622,0.1521709,1.3482740,1.0872489,1.0682467,1.1303380,1.8106322,1.9227910,1.2885473,0.7221739,0.9466161,1.0470639,1.5511705,2.1324241,1.5885165,1.4565454,1.7544185,1.9805965,1.4186149,1.6155056
0.7617677,0.6862044,-0.0733779,1.2649956,0.8026208,1.0554631,1.0099069,1.8612173,1.8290255,0.9762756,0.8202792,0.7691749,1.1263797,1.3687094,2.1833549,1.6243776,1.5824112,1.4738210,1.9704111,1.5519860,1.4847770
0.6308553,0.5433002,-0.0752456,1.2987036,1.1315777,1.1285187,0.7824600,1.8263137,1.9237946,0.8473815,0.9647944,0.3521220,1.2804358,1.4846209,2.0885947,1.8304882,1.6193264,1.6712484,2.0818119,1.7977065,1.3655939
0.5370758,-0.0096664,0.1368628,1.1389698,1.0752852,1.3705105,0.6998237,1.5818508,2.1602478,1.0453205,0.9734275,1.2539258,1.2542765,1.2800364,2.2297826,2.1170342,1.6858960,1.7996964,2.2112818,1.9268475,1.5716113
0.3336005,-0.1377405,-0.1182485,1.1227963,0.9350179,1.1074569,0.7237749,1.6170360,2.0047982,1.1345192,1.1458333,1.4152988,1.1864415,1.3846164,2.2138271,1.9641988,2.0014243,1.8816338,2.4469371,1.9156013,1.8297333
0.3436239,0.0153437,-0.2378170,1.1438923,1.0426289,0.8876743,0.6336042,1.5838504,1.8889576,0.9162846,1.4126124,1.1973295,1.0799078,1.3365024,2.6143670,2.1352091,2.1246114,1.7081623,2.6603634,2.2973986,2.1526272
0.3518423,-0.1459786,-0.4591062,1.3176415,1.0946264,1.3105154,0.5957474,1.7588969,2.0699649,1.3306689,1.2561210,1.9161068,1.1159639,1.3909327,2.5642900,2.2047904,2.1424646,1.8649503,2.6501679,2.5379937,2.1503661
0.3170147,-0.4599358,-0.4721520,1.3856564,0.5813326,0.7801581,0.7405430,1.7744823,2.0915351,1.3548393,1.2551559,2.0655894,1.2343161,1.4819597,2.7185090,2.4229984,2.1943715,1.8184885,2.9521852,2.4229257,2.1240201
0.3803636,-0.2023677,-0.5695491,1.3577843,0.7256188,0.5270509,0.6332829,2.1114836,2.2169206,1.2140024,1.3471957,1.6197014,1.3160532,1.3199854,2.7948673,2.6295927,2.2804036,1.9956455,2.9172616,2.2324469,2.3913598
0.4797805,-0.3162706,-0.6007325,1.4810300,1.0017719,0.8916767,0.3932917,2.1953714,2.2537632,1.2868837,1.5319579,1.5864904,1.3309383,1.3215759,2.4513099,2.7352157,2.2304494,2.0307984,2.8413038,2.2235255,2.2682493
0.4526285,-0.4193976,-1.0259305,1.4104533,0.7847691,0.4428347,0.2008826,1.9001906,1.8729551,1.4912332,1.3114142,1.9610192,1.0871772,1.0562000,2.0760162,2.1382604,1.7041123,1.5927510,2.4127390,1.9236084,2.0317574
0.2837063,-0.3694566,-1.1533749,1.1370097,0.6414206,0.5729838,-0.1795109,1.3829049,1.5238764,0.9058660,0.9066671,1.3232113,0.5957999,0.6114205,1.6998335,1.2744471,1.3767695,1.3991771,1.7038410,1.3555083,1.7103307
0.1810123,-0.6302579,-0.9579591,0.9750990,0.7782513,0.3667621,-0.2797617,1.0668594,1.2246171,0.5089625,0.8685197,0.5252080,0.3885475,0.5690094,1.2180052,0.6506648,1.0199685,1.1285672,1.3209103,0.8573349,1.2456594
0.1384549,-0.5181441,-1.1183444,0.8490762,0.4762061,-0.1415804,-0.2487099,0.6723231,1.0260148,0.2952166,0.5864585,0.3941999,0.5589432,0.4667238,0.9766452,0.4906091,0.3312476,0.8005058,0.7277212,0.4761136,0.9060223
0.0145061,-0.3313834,-1.2706302,0.7485142,0.7104461,-0.2204199,-0.2263861,0.5745241,0.6235813,-0.1211278,0.4079159,0.1419256,0.2915474,0.2306041,0.8333042,0.4513359,0.1370620,0.6813936,0.8776767,0.1324942,0.5973409
0.0940743,-0.2323401,-1.3222009,0.7851175,0.7538629,-0.2315827,-0.1934900,0.6901412,0.5533799,0.0521158,0.3050061,-0.6603237,0.1268966,0.1687999,1.1873822,0.5047951,-0.0050630,0.8424763,0.8965377,0.1234566,0.5546809
0.2758896,-0.5312961,-1.2841264,1.0336231,0.7142639,-0.3223380,-0.2450030,1.2045745,0.9732086,0.1942144,0.2422378,-0.0085727,0.2313509,0.3859053,1.7512082,0.8575034,-0.0550608,0.8166607,1.2270139,0.1150409,0.6538329
0.3295202,-0.2588625,-0.7960917,1.0980650,0.6789878,0.1927390,-0.2060365,1.2721829,0.8717926,0.3058270,0.0033659,0.4595963,0.2096003,0.4401582,2.0800202,1.1129457,0.0375869,0.7605215,1.6841614,0.2210801,1.1181499
0.4833066,0.1486501,-0.6826792,1.3755424,0.8037723,0.4461279,0.2020497,1.6345609,1.3872389,0.2222463,-0.0364968,-0.3136434,0.5175274,0.7075616,2.5035937,1.1879611,0.0389253,0.9487332,1.8540071,0.6883948,1.2284619
0.6086941,0.2223140,-0.7272967,1.3100230,1.1432847,0.3260773,0.3489490,1.9127010,1.7556040,0.4537610,0.5916225,-0.9949798,0.5300409,1.0011959,2.4467907,1.4143231,0.4618531,1.1189914,2.0169766,0.9428095,1.4436338
0.7017584,0.4177426,-0.6691937,1.4089165,1.2509776,0.3454825,0.4166857,1.9330858,1.7331685,0.9870861,0.4001252,0.4102523,0.5142208,0.9602277,2.5517783,1.7839153,0.7770291,1.3005377,2.5268140,1.3328687,1.6070286
0.7210779,0.8233328,-0.3265528,1.5150487,1.2505090,0.5212137,0.7965981,2.0209396,2.1206782,1.2614398,0.6030400,0.8244927,0.7867163,1.3354059,2.8524263,2.0968628,1.5464540,1.7085366,2.7907956,1.7682239,1.9650853
0.6932002,0.7902547,0.0915072,1.6690071,1.8327605,0.9531913,0.9752977,2.3912003,2.0464642,1.2686876,1.1852375,0.7999038,1.2743776,1.6262832,3.0468643,2.2317193,1.9956850,1.7993706,2.8248997,2.1002591,2.3691797
0.7911998,0.3935083,0.2672903,1.6780999,1.9674150,1.1735350,1.0333296,2.2433069,2.3198922,1.4872075,0.8725122,1.3624827,1.2717896,1.6104220,2.8601382,2.1017365,1.9026039,1.8532315,2.9426966,2.2368345,2.5535128
0.6678304,0.4691250,0.1965714,1.5709797,1.6759526,1.0777560,1.0224384,2.1115615,1.9500149,1.4767950,0.7292386,1.7719491,1.4733553,1.9172226,2.5945988,2.1761737,1.9868659,2.0502203,2.8708436,2.5176980,2.3800352
0.7760898,0.4809676,0.2742901,1.6692789,1.6547092,0.8672807,0.7467530,2.2987683,1.9156673,1.2457503,0.8219310,1.3605624,1.5220938,1.5287406,2.6255877,2.0980432,1.7701564,1.8314855,2.5992389,2.1141000,2.1187141
0.6410642,0.2786221,-0.0000551,1.4945316,1.6137406,0.9462514,0.5568974,2.0608714,1.9004228,1.3826298,0.8500959,1.2859628,1.2282875,1.3052210,2.2233286,1.9460328,1.5414833,1.5136251,2.3936784,1.7322437,2.0051751
0.4406189,-0.3602827,-0.4969788,1.1351346,1.3168881,0.5576552,0.3653370,1.6596881,1.5952823,1.1856430,0.8453850,1.1632361,1.2842625,1.0661924,1.9721909,1.6023955,1.2739868,1.2203228,1.9536613,1.3679581,1.8778019
0.3932751,-0.2654245,-0.5023790,0.9378352,1.0232635,0.4227525,-0.0104078,1.4814888,1.5139014,0.5673440,0.8096038,0.8784953,0.7479215,0.9140020,1.7964412,1.4756577,1.0499917,1.1683166,1.6218890,1.2476714,1.5250264
0.3441639,-0.1330004,-0.7235305,0.9393236,1.0183071,0.3118697,-0.0928060,1.2629192,1.2519571,0.6937228,0.7209643,0.5901226,0.7144149,0.5184054,1.6396387,1.1904129,0.8477656,1.1250305,1.5293162,1.0265598,1.2519543
0.0835983,-0.3967959,-0.4675735,0.8137910,0.9189909,0.0976487,0.1031469,0.9456797,1.1252763,0.8618982,0.4241698,1.0712540,0.7174396,0.6751730,1.4306185,1.0517170,0.7854232,1.0743299,1.5244524,0.9414226,1.2550640
0.0350604,-0.3526183,-0.7898900,0.7028809,0.9735315,0.5623062,-0.1580098,0.7485628,1.2344396,0.6519433,0.4727932,0.9764282,0.6679528,0.4746567,1.4121404,1.0470452,0.9593819,1.0824221,1.5354213,1.2011478,1.4070239
-0.0283272,-0.4893032,-0.8029984,0.5421255,0.7100062,0.5137299,-0.1922057,0.6253579,1.1067793,0.4780174,0.6586428,0.5032957,0.5726821,0.4600553,1.0883876,1.2245901,1.1107166,0.8304240,1.3801444,0.9213743,1.2589213
-0.2136497,-0.9266120,-1.0688835,0.5614801,0.5277184,-0.1488197,-0.4644420,0.4225296,0.7382759,0.1453272,0.4876188,0.9147344,0.2916734,0.1634758,0.8449243,1.1915121,0.8405511,0.6726810,1.2563958,0.5904574,0.9412509
-0.3045505,-0.8825513,-1.1830896,0.5971081,0.2543958,0.0874683,-0.7368741,0.4153178,0.5412246,0.3008968,0.6159661,0.9676224,-0.0095791,0.0525622,1.1244360,1.3548574,0.9104144,0.5752826,1.3471369,1.0035805,1.1451280
-0.2230737,-0.8860553,-1.6682085,0.4525892,0.4151133,-0.2053236,-0.9245982,0.7090899,0.7617518,0.4858446,0.5915298,0.2679070,-0.0465045,-0.1039748,1.2345138,1.0644602,0.6959838,0.0881428,1.4131260,0.7282049,0.5470894
-0.3920251,-1.2565933,-2.0183597,0.4605868,0.5842520,-0.4637425,-1.3169471,0.7204732,1.1917286,0.3665036,0.4727369,0.0448552,-0.5154361,-0.7951705,1.2889152,0.8115944,0.4174085,-0.2747547,1.2822453,0.5950674,-0.0947995
-0.3753910,-1.4034699,-2.1851151,0.6071812,0.5717656,-0.7858066,-1.3400824,0.7121298,0.9886545,0.7015785,0.3922590,0.2507214,-0.6865414,-1.2346584,1.5715153,1.0830812,0.1552299,-0.1636539,1.4718208,0.4802504,-0.3076110
-0.3848166,-1.2694556,-2.3041756,0.7563711,0.6337112,-0.6614209,-1.3382694,1.1063616,0.8572342,0.4445144,0.4136828,-0.4006457,-0.8916453,-1.1736180,1.5652674,1.2067626,-0.0281675,-0.3100550,1.5715340,0.3642479,-0.2737351
-0.4887465,-1.2527257,-2.2128639,0.7093694,0.7339221,-0.4123422,-1.3263098,1.0112600,1.0788282,0.3828093,0.7035399,-0.1545225,-0.5651388,-0.8331285,1.6355428,1.0693032,0.5186204,-0.1809449,1.4285580,0.6827251,-0.0894953
-0.2608788,-1.0786715,-1.9770310,0.7415921,0.8218094,-0.1838586,-1.1510566,0.8471444,0.7488541,0.5510691,0.6072090,0.5999004,-0.3624060,-0.5892315,1.6059411,1.1504711,0.6845824,0.0810743,1.4992381,0.5181164,0.2376679
-0.4509163,-0.8582934,-1.7738963,0.8729970,0.5124283,-0.0967177,-0.9622197,0.9801961,0.9856995,0.6501835,0.4966697,0.5353637,-0.1277614,-0.3574753,1.6355727,1.6450402,0.6574752,0.0911902,1.7737950,0.5233448,0.4181612
-0.3501343,-0.8019102,-1.8060360,0.9220108,0.5542808,-0.1949669,-1.1419597,1.1412498,1.3579197,0.2980134,0.7188970,0.1058529,-0.2975892,-0.5351692,1.6062995,1.4763844,0.7389333,0.1107791,1.5785265,0.5109791,0.0618527
-0.2239034,-0.9539761,-1.8659081,1.0220044,0.7597225,-0.6982061,-1.2002902,1.0377731,1.2874057,0.5605159,0.5871984,0.5367466,-0.3029795,-0.5106348,1.5523149,1.2056233,0.4123238,0.0258568,1.3578311,0.4804282,-0.0478171
-0.2281913,-1.2123430,-1.6999058,0.9751962,0.7740651,-0.5371197,-1.0382878,1.0999856,1.0150785,0.5646923,0.4270075,0.7323781,-0.1460120,-0.6143035,1.5473746,1.2272857,0.2321956,-0.0248229,1.3452424,0.3911296,0.0301302
-0.1991347,-0.6891441,-1.4552360,1.0551873,0.9174655,-0.6298548,-1.0289776,1.1810802,0.9561634,0.4580089,0.6802123,0.2557713,-0.2776311,-0.3988753,1.4534552,1.0946469,0.4557656,0.1491356,1.0637102,0.2436070,0.2620974
-0.0537754,-0.6884733,-1.2309234,1.0203875,0.6804277,-0.4039566,-0.8519598,0.8561971,1.1096849,0.6189840,0.8000818,0.5202162,-0.3106551,-0.4818597,1.4162447,0.9290120,0.1878370,0.2465935,0.9026200,0.4262080,0.4366160
-0.1598321,-0.8637218,-1.2134073,0.9633363,0.6463178,-0.4230137,-0.7626943,0.8066010,1.1619195,0.6943359,0.5417631,0.6173909,0.0345513,-0.3625036,1.2297016,0.7221118,0.2016934,0.1346529,0.7488303,0.4377705,0.3719887
-0.1565755,-0.2652410,-1.1306946,0.9578567,0.4259498,-0.2032803,-0.5901024,0.8898095,0.9813540,0.3973889,0.4720103,0.7495341,0.0867175,-0.3336964,1.3201711,0.6602143,0.4509760,0.2942112,0.8780754,0.4083850,0.5885916
-0.2311516,-0.2196638,-1.1524926,0.8346727,0.5411693,-0.2027724,-0.5142627,0.7072536,1.1055294,0.6174660,0.7461590,0.7103552,0.1120578,0.0100540,1.5639473,1.0448431,1.1410787,0.5547211,1.2034346,0.7345189,0.7560817
-0.1674533,-0.5172953,-1.0728981,0.8394487,0.8702582,0.0430452,-0.2828819,0.7719912,1.0584221,1.0247600,0.9440131,1.3397974,0.3986561,0.3423735,1.8348382,1.4818770,1.1371284,0.9647973,1.5634316,1.2630676,0.9308852
-0.2281343,-0.6494906,-0.9235824,0.9963837,0.8278323,0.1856538,-0.0527488,1.1422676,1.1786616,1.0401615,1.0357679,1.0359466,0.7391927,0.4386329,1.7925574,1.5429655,1.3555899,1.3173996,1.8633537,1.3804111,1.2775371
0.0199725,-0.3896378,-0.9499492,1.0040650,1.0561872,0.0494906,-0.0720586,1.1506225,1.3817953,1.1368767,0.9141182,1.0155278,1.0076822,0.6124374,1.5441673,1.5316068,1.6576308,1.3331937,1.8139856,1.2173904,1.5694232
-0.1559601,-0.5609507,-1.0091803,0.9472006,1.0117542,-0.2966436,-0.3621276,0.9228505,1.2485762,0.9342337,0.7376940,1.3005021,0.6875728,0.6272877,1.3868929,1.2229832,1.2141392,0.8714144,1.5119957,1.1350155,0.9336119
-0.1913493,-0.6219736,-1.3289086,0.8794629,0.9866853,-0.5909337,-0.5019876,0.9213885,1.0902280,0.8061782,0.4992572,0.7739797,0.2486531,0.2286465,1.4191650,0.9828458,0.4640634,0.5765004,1.3259753,0.9378350,0.6150694
-0.1514895,-0.5497299,-1.2835629,0.8165788,0.7005914,-0.2997531,-0.7794894,0.8686906,0.7648299,0.3595237,0.7069565,0.0510236,0.1318900,-0.0705665,1.0841841,0.8771267,0.2775366,0.1980754,1.2686867,0.6369286,0.2212550
-0.2113142,-0.6521223,-1.1725563,0.7428768,0.8364761,-0.5760137,-0.8236895,0.6289410,0.5432410,0.1193017,0.1409473,-0.1584097,-0.1504890,-0.5154827,0.7990367,0.5541608,-0.1876310,0.0336047,0.8495281,-0.1146921,-0.2505640
-0.0922081,-0.6029499,-1.2599424,0.7021157,0.9165286,-0.6200479,-0.7949018,0.4958327,0.5757850,0.2542357,-0.0280725,0.0104068,-0.3371162,-0.4554113,0.9867879,0.1763087,-0.3004624,-0.1113820,0.8409694,-0.5983849,-0.2856804
0.0034579,-0.2667203,-1.3978293,0.6754940,0.8107462,-0.7771176,-0.9706079,0.7122800,0.7058719,0.3815528,-0.1853976,-0.8240917,-0.4512967,-0.2482647,1.0588831,0.3468164,-0.3559194,-0.1887388,0.8893285,-0.5785946,-0.5041783
-0.0565105,-0.1979173,-1.7748449,0.7907187,0.7655315,-0.9599613,-0.9734021,0.8195105,0.8251904,0.1828310,-0.0717002,-0.8679041,-0.3724117,-0.5329563,0.9826442,0.5665165,-0.3196805,-0.1595822,0.7681308,-0.3754531,-0.5414278
-0.2430920,-0.5213462,-1.8931469,0.6379029,0.6608137,-0.9666523,-1.0958478,0.5949131,0.5879972,0.0794680,-0.0099688,0.1034341,-0.6060737,-0.8133707,0.7306944,0.2679099,-0.6780809,-0.5907958,0.6146312,-0.3929915,-0.6746746
-0.4335704,-0.4739913,-1.6315823,0.4371025,0.3842335,-0.8792804,-1.2464228,0.4832203,0.1428027,-0.2644932,-0.3081390,-0.7152845,-0.8839831,-1.0230113,0.4955806,-0.0787520,-0.9141467,-0.9192109,0.4117030,-0.7804191,-1.0021315
-0.5399770,-0.2646123,-1.5171503,0.4567672,0.6452736,-0.3370706,-1.1679219,0.2085530,0.0939149,-0.4394899,-0.2299870,-1.3857638,-0.9266896,-1.2459233,0.3823856,-0.1460974,-0.8464298,-0.8603252,0.2377695,-1.0294355,-1.0727494
-0.6722084,-0.5577113,-1.6324120,0.2934583,0.4931304,-0.8479849,-1.3516017,0.1037588,-0.1290974,-0.4203086,-0.3121402,-0.6257911,-0.6567947,-1.3453093,0.1888458,-0.3941060,-0.8963258,-1.0674875,0.0115296,-1.0437772,-1.0319570
-0.7136228,-0.6798673,-1.5345755,0.1506612,-0.1538071,-0.7341989,-1.2013584,-0.0366175,-0.1658909,-0.4898572,-0.0983033,-0.4381562,-0.9098055,-1.3846900,0.2130749,-0.4616491,-0.7228692,-0.9219071,-0.0090025,-1.0406508,-1.0927248
-0.7875763,-0.8115564,-1.7796018,0.2313330,0.1434270,-0.1404991,-1.2172314,-0.1053564,-0.1713562,-0.6493732,0.3689030,-1.0130290,-0.8352889,-1.3316342,0.4397495,-0.2617710,-0.5939219,-0.7684099,0.2814776,-0.7552172,-0.6603466
-0.8218039,-0.8197989,-1.6878635,0.3998284,0.3608966,-0.5526555,-1.3591386,0.0990868,0.1825520,-0.3337451,0.4256984,-0.6065364,-0.8474405,-1.1356606,0.6761743,-0.1309571,-0.5717008,-0.8959315,0.1619305,-0.5949469,-0.4388479
-0.6712130,-0.8639783,-1.7279246,0.4662118,0.7625163,-0.3989969,-1.2415683,0.3904186,0.2868642,0.0475383,0.3152199,-0.0321203,-0.9942675,-1.0896053,0.5923502,0.0264345,-0.6865714,-0.6734748,0.2220119,-0.5977311,-0.6058416
-0.4357783,-0.9440905,-1.6223253,0.4447209,0.8505675,-0.5115440,-1.1565120,0.5776265,0.2751961,0.0152127,0.4444908,-0.5783016,-0.8620686,-1.1444014,0.7537183,0.0791303,-0.3085694,-0.2906833,0.2095297,-0.5483350,-0.1965609
-0.3517099,-0.8354205,-1.2728118,0.5828933,0.5826855,-0.4243281,-0.8747610,0.5767435,0.1710919,0.2355771,0.1706963,-0.6044440,-0.3313145,-0.6370703,0.6589187,0.2618514,-0.3371551,-0.4411277,0.3790883,-0.2299839,-0.1676139
-0.4107776,-0.9948709,-1.2146466,0.7241188,0.5282447,-0.3047323,-0.9026550,0.6348960,0.3527582,0.1144195,0.1376720,0.1185720,-0.2043350,-0.6671410,0.7976179,0.1714284,-0.4949766,-0.3028877,0.5465992,-0.3791875,-0.1712184
-0.2485233,-0.5849946,-1.1147647,0.7665138,0.8450477,-0.3064481,-0.9783855,0.6486863,0.4690036,0.2662246,0.4443220,0.1641452,-0.6417819,-0.8592553,0.7595456,0.4145547,-0.4773068,-0.3358988,0.7560366,-0.2611414,-0.2032526
-0.2369368,-0.8306163,-1.0873379,0.8028993,0.8969080,-0.7002690,-1.1033642,0.8794963,0.5685753,0.2052971,0.2781349,-0.5978997,-0.6716158,-0.8994219,0.7258443,0.5600122,-0.5131414,-0.5179455,0.7035332,-0.2584935,-0.3975629
-0.3107879,-0.8545429,-1.1273842,0.7621151,0.8348306,-0.8153625,-1.2419069,0.7859891,0.7985066,0.3093428,0.1810715,-0.1235817,-0.6235850,-1.0830392,0.8726712,0.1271674,-0.3638134,-0.4690433,0.6041324,-0.3118170,-0.2554930
-0.0100910,-0.6280018,-0.9419722,0.8108650,1.0809159,-0.8678221,-0.9939590,0.8351520,0.6290402,0.1394162,0.3395955,0.1419165,-0.4493336,-0.9536551,0.8394251,0.2436110,-0.3986631,-0.3467849,0.6689951,-0.1803621,-0.2172206
0.2234357,-0.7027598,-1.0923758,1.0458750,0.8975878,-0.5861799,-1.0470167,1.1718067,0.8744791,0.1925843,0.4817853,-0.3416098,-0.3528114,-1.1011621,1.0994741,0.3494955,-0.4581525,-0.3692974,0.9459516,-0.2292699,-0.2273873
0.1418005,-0.6389757,-1.3734061,0.9573303,1.1511976,-0.6687071,-1.1538287,1.2306640,1.1024175,0.5484001,0.2961624,-0.6999294,-0.2777718,-0.9284669,1.3817879,0.2738294,-0.6560208,-0.5080886,0.8514487,-0.6380337,-0.2400932
0.0485820,-0.6946349,-1.2041204,1.0244889,1.0686789,-0.4951709,-1.0889599,1.2106192,0.8557656,0.5062438,-0.0122796,-0.2549875,-0.5509664,-0.8464301,0.9413065,0.0527966,-0.4631540,-0.5039632,0.8219523,-0.6371967,-0.3746897
0.2130380,-0.2945999,-1.0951097,1.0573351,1.3578891,-0.0005794,-0.9641221,1.0700862,0.7879999,-0.0048553,0.1070349,-0.6643332,-0.4837833,-0.9957787,0.9076324,0.1373312,0.1703464,-0.4034641,0.5893536,-0.4802909,-0.2854548
0.1992240,-0.3309412,-1.3067888,0.9733599,1.3078988,0.0302317,-1.0531665,1.2224933,1.0247790,0.3282316,0.4230564,-0.2707076,-0.3564793,-1.0343697,1.2053819,0.4271059,0.0777694,-0.3804198,0.9057719,-0.1504038,0.0271713
0.1358594,-0.6031926,-1.2930857,1.1216812,0.9764752,0.0897227,-1.1181444,1.2098683,1.0901124,0.4681889,0.3027570,0.3596152,-0.1868594,-0.4837482,1.4720443,0.7106141,0.0344275,-0.3691258,0.9271763,0.0893624,0.2266554
0.1636798,-0.3898628,-1.1111022,1.1484413,1.0856891,0.1352616,-0.9852175,1.3933576,0.9589697,0.3163046,0.3852773,-0.2218675,-0.3321392,-0.5788962,1.4336312,0.6762314,-0.2391926,-0.2396603,0.9663250,0.1170443,-0.2022171
0.0702052,0.2067000,-0.8836907,1.1747557,0.8227481,0.0867947,-1.0036852,1.2621858,0.9030806,0.2596903,0.3904870,-0.5288136,-0.4159895,-0.5911033,1.2725410,0.5033769,-0.3926528,-0.1104864,1.0039747,0.0192918,-0.5288179
0.1652428,0.0350254,-0.9988841,1.1011643,0.8114035,-0.1241606,-1.2624633,1.1073824,0.9511716,0.3820019,0.1863795,-0.0381399,-0.6256362,-0.7439931,1.1077102,0.4231640,-0.5571614,-0.4568174,0.7696581,-0.3173539,-0.4443281
0.2578455,-0.1268779,-1.0995586,1.0178865,0.7483947,0.1107432,-1.0240092,1.2921602,0.8207166,0.0629115,-0.1072971,-0.0968215,-0.6719529,-0.8068713,0.9575058,0.0548393,-0.5950137,-0.5590529,0.5857285,-0.6648162,-0.6150391
0.0925836,-0.0186422,-1.0499419,0.7311464,0.4644348,-0.0263981,-0.9323127,1.1150675,0.5624087,-0.2722064,0.1335477,-1.0888953,-0.9157146,-0.8945215,0.5130461,-0.3894766,-0.7761405,-0.6713766,0.4954157,-0.7623428,-0.9144604
-0.0057178,-0.1174004,-1.3516965,0.4190209,0.4272400,-0.3485596,-1.2620522,0.7758235,0.3199435,-0.2225739,-0.0555228,-0.7501622,-1.1271446,-1.1067992,0.2503243,-0.5155218,-0.9611883,-0.8942776,0.2873579,-0.9233944,-1.0203562
-0.1283804,-0.4230020,-1.4492233,0.3358563,0.3291241,-0.7883663,-1.2671908,0.4837951,0.0857674,-0.2316258,-0.1474064,-0.5684491,-1.0325842,-1.1299206,0.0044158,-0.4637488,-0.9397180,-1.0197817,0.1723417,-1.0054741,-1.0841562
-0.1932099,-0.4051120,-1.0261350,0.2432754,0.4155327,-0.3012079,-1.1102036,0.2183178,-0.2616552,-0.1998141,0.0230274,-1.0827839,-1.0821793,-1.0575696,0.2377364,-0.4339719,-1.3146846,-1.0443591,0.2299251,-1.0529852,-1.2005658
-0.3724303,-0.3363110,-1.1627997,0.0094554,0.3164882,-0.2629596,-1.2185658,0.1688876,-0.3155845,-0.5204129,-0.1386765,-1.0102694,-0.9938278,-0.9342214,0.0897581,-0.7194487,-1.1259862,-0.9474823,0.0100378,-1.1292852,-1.1547706
-0.5901802,-0.6955755,-1.4205478,-0.0219263,-0.0739501,-0.2856905,-1.3142362,-0.1234529,-0.6278263,-0.9415309,-0.2387516,-0.7585418,-0.9630630,-1.3876957,-0.1450503,-1.1070243,-1.0976838,-0.8751730,-0.1604769,-1.1987535,-1.3499588
-0.6095073,-0.6655329,-1.3815926,0.0844286,-0.2019416,-0.3356734,-1.3204772,-0.0325840,-0.5486535,-0.9684816,0.0027240,-0.7527953,-0.7789695,-1.1489635,0.1476219,-1.0212111,-1.0165770,-0.6454336,-0.2149489,-1.1063968,-1.1139592
-0.5242946,-0.3740466,-1.3806739,0.3219742,-0.0276280,-0.0383663,-1.1963998,0.3765565,-0.2400640,-0.8536991,-0.0433047,-0.7487909,-0.7978259,-0.8841298,0.0841060,-0.8065706,-1.0768447,-0.7836924,-0.2828353,-1.0815312,-1.1503772
-0.5549658,-0.4234009,-1.3203419,0.2754140,-0.0392455,-0.5285414,-1.1855367,0.1607253,-0.4236021,-0.5392182,-0.2039943,-0.8811110,-0.8324881,-0.9396063,-0.0387917,-1.0800515,-1.2660992,-0.8439395,-0.4755448,-1.0500325,-1.1874954
-0.3877155,-0.5512044,-1.3375845,0.1673357,0.0181437,-0.9640259,-1.3369709,0.0623117,-0.5003794,-0.4976768,-0.2313242,-0.6355122,-1.1074613,-1.0200030,0.0370302,-0.9931134,-1.1015053,-1.0341849,-0.3746242,-1.1337751,-1.1377480
-0.3294246,-0.4245393,-1.2948463,0.1247236,0.3198180,-0.3061064,-1.1815536,0.2459895,-0.2486599,-0.8357230,-0.2090458,-1.3443885,-1.0814358,-1.1351302,0.2736610,-0.8017765,-0.9900680,-0.8769626,-0.3490144,-0.8912813,-0.9403182
-0.4558433,-0.6667846,-1.1529151,0.0113818,0.0998964,-0.0679583,-1.1581354,0.1252659,-0.2370748,-0.7623103,-0.4403318,-1.7187809,-0.8601314,-1.1029122,0.0164371,-0.8496634,-1.1258357,-0.9517938,-0.4083493,-0.9314086,-1.0109603
-0.4952527,-0.8249245,-1.2176318,-0.0324418,0.1116809,-0.5081188,-1.0713891,0.0671516,-0.1766571,-0.5711247,-0.6026753,-1.0872949,-0.5896932,-1.0198649,0.2731073,-0.6054061,-0.9194850,-0.8329951,-0.1930439,-0.7831905,-0.5860934
-0.4706687,-0.4666830,-1.0482976,0.1546938,-0.1311221,-0.1503220,-0.9423201,0.0220924,-0.6361034,-0.6113730,-0.3104608,-1.6616416,-0.8005154,-1.0879780,0.2750264,-0.4007758,-0.9274999,-0.8446428,-0.0605855,-0.7589663,-0.8872464
-0.5722779,-0.4805325,-1.1327585,0.2311419,0.0482647,-0.3853212,-1.0495399,0.1313698,-0.4085378,-0.6629425,-0.3110173,-1.3330606,-1.1475534,-1.0580568,0.0934197,-0.6368008,-1.2234608,-1.0649333,-0.1530613,-1.2685562,-1.0827777
-0.5230240,-0.3769683,-1.2095733,0.2265594,0.3843147,-0.5526336,-1.0580114,-0.0828601,-0.2452730,-0.6678353,-0.3991109,-1.0341717,-1.0336339,-1.0603343,0.0170036,-0.7411917,-1.1012331,-1.0980612,-0.3260141,-1.2353177,-1.3124927
-0.3152970,-0.2652571,-1.1031004,0.3574031,0.0814091,-0.4467303,-0.9182480,0.0583518,-0.2766010,-0.6481389,-0.2857388,-0.9213115,-1.0461195,-0.9295605,0.1193659,-0.7403500,-0.6667706,-0.7986423,-0.3182574,-0.9730060,-0.9737604
-0.1929372,-0.5106103,-0.9505745,0.3437504,0.2716183,-0.1120664,-0.8637753,0.2975422,-0.0972095,-0.5437607,-0.0775901,-0.7149359,-0.3898308,-0.7298591,0.4117710,-0.4004959,-0.4289258,-0.8006068,-0.2641703,-0.6942807,-0.7624952
-0.1316155,-0.4545249,-0.8637390,0.4601178,0.5111487,-0.3933965,-0.8036052,0.4931613,0.4070505,-0.2232335,-0.2892822,-0.5988601,-0.3251725,-0.7299625,0.5130582,-0.6372575,-0.5815055,-0.6599056,-0.2364390,-0.6389720,-0.9154918
0.0935829,-0.0757498,-0.7774320,0.9706661,0.6810513,-0.1100874,-0.5021435,0.9009333,0.5179520,-0.0723227,-0.3421298,-0.7291571,-0.2543689,-0.3008439,0.6740724,-0.2198513,-0.5084426,-0.2984119,-0.1750587,-0.7551105,-0.6534047
0.1770654,0.2033361,-0.4551484,1.1252216,1.0994149,0.1766869,-0.3241339,1.1777638,0.6716768,-0.1543902,-0.1895310,-0.7280774,-0.1064193,-0.2457065,0.9047816,0.2497967,-0.3417894,-0.0659913,0.2427310,-0.4544485,-0.2037015
0.2655404,0.2195810,-0.2810410,1.1308832,1.0868831,0.4806468,-0.4135804,1.1137234,0.7751909,0.1891339,-0.2261286,-0.0024212,0.0961952,-0.1623877,1.1516986,0.0590636,-0.1873448,0.2148305,0.5459676,0.0438091,-0.1300175
0.1821848,0.2091441,-0.1464535,1.0568029,0.7075199,0.1924271,-0.3188355,1.0027314,0.7162613,0.2067339,-0.1150536,0.3246765,0.1365253,0.0058421,1.1594253,0.3691598,0.2300929,0.3781503,0.6226375,0.2584423,-0.0348070
0.1313161,0.1105398,-0.3402817,0.8214809,0.5585304,-0.0861527,-0.1908823,0.8066698,0.6542718,0.1762053,0.1130679,-0.3833894,0.1811325,0.1667407,1.0228189,0.2137424,0.3120355,0.4173724,0.6727988,0.1387769,0.2400906
0.1651845,0.0914722,-0.3260708,0.7801775,0.8309850,-0.3882954,-0.1295227,0.8787624,0.5810812,0.0443333,0.1768281,-0.5319220,0.1043302,0.1638780,1.1139199,0.1944690,-0.1449555,0.3911017,0.4860133,0.0828185,0.0117246
0.0676202,-0.0928094,-0.7819641,1.0275042,0.5731680,-0.6131464,-0.2150102,1.0016732,0.4814543,0.2176306,0.0264908,-0.2220060,0.0860541,0.1691698,0.7918695,0.0638318,-0.1772112,0.2075787,0.5437975,-0.0864113,0.0887970
0.0967179,-0.1440306,-0.7696929,1.0041143,0.6649409,-0.4891607,-0.2462216,1.0118220,0.6187476,0.1111463,0.0019463,-0.4102507,0.0216322,0.0662836,0.9080750,0.1327485,-0.2020545,0.1751045,0.6604810,-0.1096416,0.1286475
0.1626514,0.2791006,-0.5635345,0.9356779,0.8042976,-0.3139744,-0.2942125,1.0076774,0.8407597,0.0653741,-0.0664246,-1.1101400,-0.0555729,0.2328736,0.8450720,0.3111935,-0.3562153,0.1107266,0.5945715,-0.0915235,0.0317113
-0.0838001,-0.1053808,-0.5958948,0.8180254,0.1391277,-0.5360283,-0.4975817,0.5488895,0.5715436,-0.0187264,-0.2303697,-0.2809609,-0.0803300,0.0809485,0.5452840,0.1673902,-0.6337366,-0.1149555,0.4352086,-0.3824151,-0.2686075
-0.1851637,-0.5926076,-0.6761082,0.7907247,-0.2692218,-0.9230955,-0.4514134,0.5215054,0.2424483,-0.1725740,-0.0446806,-0.2477439,-0.5126036,-0.1828397,0.6538591,-0.1474319,-0.5961860,-0.1965162,0.2529977,-0.4739753,-0.3994065
0.0249859,-0.3972363,-0.6621717,0.7912048,0.0425470,-0.8742760,-0.5521126,0.5101143,0.1521649,-0.3016620,-0.1450183,-1.5441092,-0.3865903,-0.2386815,0.4016371,-0.3647943,-0.4264106,-0.4089291,0.2392158,-0.5368401,-0.3965092
0.1475603,-0.4242820,-0.7172734,0.5585875,0.5075386,-0.9448648,-0.7185299,0.4118010,0.1164786,-0.2732455,-0.4053586,-1.1009563,-0.5640736,-0.5480103,0.1124893,-0.9491434,-0.9376813,-0.7047183,-0.0540414,-0.7694592,-0.7835158
-0.1092274,-0.3089167,-0.7808115,0.3822428,0.2792037,-1.3607644,-0.7861251,0.0515573,-0.4668121,-0.4659954,-0.8537529,-1.0378227,-0.9851548,-0.6507457,0.0780390,-1.3459477,-1.4783114,-1.0472000,-0.4001020,-1.1527394,-0.9115951
-0.1570069,-0.3834884,-1.2979394,0.3352026,0.2150941,-1.3524724,-1.0626377,-0.0295669,-0.4417088,-0.6923681,-0.6807600,-1.7526029,-1.0442454,-0.8848393,-0.1591600,-1.1957539,-1.6865654,-0.8045986,-0.3559848,-1.2062017,-0.9430430
-0.1549204,-0.2677578,-1.2831242,0.1841817,0.3757096,-1.4338229,-1.1063982,-0.0020299,-0.3298474,-0.6211559,-0.6830620,-2.0328786,-1.2453020,-1.0358727,-0.1833650,-1.1052966,-1.6097499,-1.1866285,-0.4125706,-1.1968262,-1.2961898
-0.2312142,-0.7559581,-1.3454137,0.1195785,0.0316380,-1.5224097,-1.2720848,-0.0857070,-0.1850063,-0.7319038,-0.7440168,-1.1790208,-1.4551642,-1.1885356,-0.1096668,-1.1109451,-1.8016307,-1.2907383,-0.3221239,-1.2145870,-1.4190370
-0.2755344,-0.8996065,-1.4325186,0.2656529,0.2392970,-1.5246657,-1.4321600,-0.0720477,-0.5535737,-0.6494759,-0.6234881,-1.1946988,-1.7320967,-1.5308479,-0.4650401,-1.1447283,-1.8745663,-1.3437477,-0.5913513,-1.2155383,-1.4816563
-0.2569231,-0.5011106,-1.4414010,0.0994230,0.0304429,-1.4196894,-1.5669376,-0.3124084,-0.7619767,-0.8741511,-0.9308047,-2.0286815,-1.7688214,-1.4698143,-0.4094510,-1.2703494,-2.0142465,-1.6765302,-0.9193901,-1.6529920,-2.1283107
-0.5314549,-0.5760251,-1.5889003,-0.0188487,-0.4225487,-1.5431011,-1.8532444,-0.5313210,-0.7652054,-1.0934993,-1.0592421,-2.0082493,-2.0691285,-1.4067329,-0.8184152,-1.5756536,-2.0424955,-2.1071448,-1.2127498,-1.8368342,-2.3018970
-0.7075753,-0.9851649,-2.0438423,0.0122893,-0.2148222,-1.7070999,-2.0228443,-0.6062318,-0.9318442,-1.1371638,-1.0113336,-1.7417618,-2.3552864,-2.0242338,-0.7304248,-1.4671290,-2.2338305,-2.3487687,-1.1800783,-1.8057250,-2.3019619
-0.5351062,-0.7548660,-1.7420393,-0.1672041,-0.1094679,-1.5952932,-1.9010636,-0.7515548,-0.8741947,-0.9145325,-1.0826979,-2.2886565,-1.8951522,-2.0018661,-0.8169559,-1.2512828,-2.2001240,-2.0977387,-0.9464676,-1.5454034,-2.2281179
-0.6337712,-0.6237698,-1.8107294,-0.1903908,-0.3663168,-1.6559310,-1.7811887,-0.8187053,-1.0683988,-1.0463141,-1.0931865,-2.2686250,-1.9757606,-1.9527792,-1.0164907,-1.6440476,-2.3710060,-2.3395369,-1.1266617,-1.9546584,-2.3736799
-0.7460743,-1.0301960,-2.1318495,-0.1004271,-0.4112560,-1.8140655,-1.9247881,-0.6394029,-0.9434704,-1.5648164,-1.3115606,-1.9008932,-2.3362348,-2.0770917,-0.8384455,-1.8173183,-2.3871584,-1.9134744,-1.1950157,-2.1561611,-2.3497891
-0.4917802,-0.8444672,-1.8604243,-0.0764664,-0.3727491,-1.9248052,-1.6554887,-0.3484084,-0.8113065,-1.3549095,-0.9931393,-2.2631125,-1.7900015,-1.7431452,-0.6502264,-1.5125637,-2.1188424,-1.5760754,-0.9398198,-1.9685869,-1.6254210
-0.6479720,-0.9930323,-1.8386965,-0.0592171,-0.1268674,-1.7743161,-1.4486939,-0.2181726,-0.4647919,-1.0223440,-0.8236458,-1.9708706,-1.4722985,-1.4087321,-0.2999772,-1.0444914,-1.8999684,-1.1498861,-0.7105729,-1.7321327,-1.3644747
-0.6715957,-0.9654180,-1.5007871,-0.0404077,-0.3081741,-1.7376443,-1.1609260,-0.1101782,-0.4367746,-0.8766867,-0.8870860,-1.5747184,-1.2988634,-1.1108174,0.0041896,-0.9500606,-1.6476625,-1.0436802,-0.3899374,-1.5052046,-1.2401466
-0.6966023,-0.5218287,-1.0524777,0.1613528,-0.0397015,-1.2600548,-0.8195852,0.1612668,-0.1708780,-0.6826079,-0.7007889,-1.4824214,-1.0786461,-0.7386095,0.2085938,-0.9449767,-1.3467420,-0.8485073,-0.2120700,-1.2236631,-0.9202586
-0.5251747,-0.4263026,-1.0915667,0.2537768,-0.1400372,-1.3133585,-0.7860492,0.4344872,-0.1450882,-0.3609324,-0.8173265,-1.6499548,-0.8421378,-0.8218840,0.1139015,-0.7757208,-1.4488287,-1.0370210,-0.1614912,-1.3137385,-0.9141952
-0.3991006,-0.5401967,-1.0992271,0.2493617,-0.1621386,-1.5423881,-0.5574479,0.1486494,-0.2217178,-0.5075612,-0.5662063,-1.4818479,-1.1833415,-0.9666229,0.3270185,-0.5592098,-1.4472224,-1.1336392,-0.3528701,-1.3734705,-1.0486614
-0.3506859,-0.5216621,-1.0743330,0.2956728,-0.0558934,-1.7094016,-0.8848122,0.1793694,-0.0569568,-0.3940004,-0.7507212,-1.7214172,-1.3410276,-0.9845244,0.4400507,-0.4453227,-1.2994651,-1.0232244,-0.1632791,-1.3089619,-1.0479820
-0.2935415,-0.3685397,-1.3192534,0.3545405,0.4116943,-1.4953151,-0.8541364,0.4074240,-0.0959576,-0.3823926,-0.5909548,-2.4223034,-1.3389583,-0.8380545,0.4630166,-0.4652835,-1.1049798,-0.8360632,0.0608564,-1.0099987,-0.5840283
-0.2559147,-0.2296963,-1.2131587,0.3547586,0.2663638,-1.4680879,-0.8959363,0.3771085,0.0778351,-0.2710229,-0.3642151,-1.6558837,-0.8997087,-0.7138553,0.5860603,0.1833988,-0.7591099,-0.7996644,-0.0433428,-0.9735953,-0.3072433
-0.3495716,-0.5146568,-1.0523372,0.4784282,0.0141475,-1.1629149,-0.7743207,0.3794903,0.3634193,-0.1014566,-0.4441476,-0.5029327,-0.7062526,-0.6783220,0.7943559,0.3351229,-0.3991247,-0.6636688,0.1758919,-0.4628652,-0.6237199
-0.2295953,-0.2327298,-0.9402580,0.5065097,0.1539107,-0.9187768,-0.7232167,0.8429844,0.5495301,-0.0603589,-0.2618734,-0.7451492,-0.5369130,-0.2042291,0.8366128,0.0840341,-0.2325944,-0.4602556,0.5744587,-0.0036911,-0.4631943
-0.2060593,-0.0614410,-0.8642796,0.5175431,0.0924529,-1.0577010,-0.7867409,0.8655192,0.6023262,0.3746106,-0.2239603,-0.9626426,-0.4272606,-0.1814264,0.6989637,0.2458245,-0.4518642,-0.6942198,0.3980374,-0.3956062,-0.8102840
-0.3384007,-0.4986690,-1.2468642,0.3440000,0.1412520,-1.4812124,-0.7152402,0.7917513,0.3717818,-0.1175020,-0.5886458,-0.1746487,-0.7435443,-0.1793387,0.5936993,0.0392982,-0.9025180,-0.8959320,0.1439047,-0.7075258,-1.0011299
-0.3306885,-0.5154960,-1.2452520,0.4354408,0.0759210,-1.6859150,-0.7370861,0.7326722,-0.0184694,-0.5223488,-0.5661954,-0.6699033,-1.2018811,-0.3893885,0.6948978,-0.3501025,-1.1552012,-0.7402394,0.2731846,-0.8850167,-0.6766933
-0.2942450,-0.5939192,-0.7985024,0.4792688,0.1774876,-1.0275048,-0.9461122,0.6607484,0.1901177,-0.0434830,-0.4898491,-1.3241805,-1.0481188,-0.4892229,0.6570742,-0.1454635,-0.9921092,-0.7912279,0.1507976,-0.7673944,-0.5533086
-0.4911294,-0.7534690,-0.8848292,0.3272545,0.1892069,-1.0346857,-0.7807593,0.5481475,0.3075240,0.1987892,-0.4263893,-0.4139252,-0.3617741,-0.6213610,0.5760539,-0.3458697,-0.8074372,-0.6490705,0.0338119,-0.4926307,-0.1690985
-0.5097967,-0.9477029,-1.0144880,0.4010128,0.2704386,-1.3334208,-0.6965352,0.5030980,0.0893501,-0.0489106,-0.0450321,0.1981261,-0.4946548,-0.6363620,0.5638426,-0.3715897,-0.5832827,-0.5373748,-0.0936534,-0.3644016,-0.4384780
-0.5851765,-0.6908370,-1.0495015,0.1946796,-0.1433181,-0.5659711,-0.6991659,0.5254281,-0.0980862,-0.1550445,-0.2066905,-0.3618315,-0.4365996,-0.4466704,0.3981878,-0.1792794,-0.1726524,-0.5086174,0.1754323,-0.3782496,-0.2445474
-0.7648829,-0.8105753,-0.9518481,0.0626883,-0.2784800,-0.8599668,-0.6830300,0.2516475,-0.4388344,-0.2766205,-0.2115971,-0.3154083,-0.1731922,-0.3225296,0.2999720,0.0542946,-0.2229367,-0.4751948,-0.0173467,-0.3762327,-0.2168643
-0.6550245,-0.8498792,-0.6935533,0.1332632,-0.3131149,-1.1978570,-0.7902864,0.0890124,-0.2201674,-0.1449630,-0.3118368,-0.2790200,-0.6350901,-0.3905576,0.2145925,-0.3539318,-0.6140860,-0.7130880,-0.1602211,-0.7313657,-0.5610222
